Data from test_V78500241_1830.txt Node
Date: Fri Mar 25 16:27:52 CST 2022
User: usil
Spectrometer: V785-0024
Trigger mode: 0
Integration Time (sec): 4.000000E-1
Scans to average: 1
Nonlinearity correction enabled: false
Boxcar width: 0
Storing dark spectrum: false
XAxis mode: Wavelengths
Number of Pixels in Spectrum: 1024
>>>>>Begin Spectral Data<<<<<
801.071	2899
801.214	2944
801.356	2872
801.499	2895
801.641	2910
801.783	2906
801.926	3009
802.068	2971
802.211	3001
802.353	3039
802.496	2960
802.638	3017
802.78	3039
802.923	3074
803.065	2990
803.208	2910
803.35	2918
803.492	2925
803.635	2914
803.777	2746
803.919	2861
804.061	3199
804.204	2941
804.346	2895
804.488	2861
804.63	2963
804.773	2845
804.915	2941
805.057	3077
805.199	2910
805.341	2956
805.483	3020
805.626	3036
805.768	2963
805.91	3127
806.052	3112
806.194	3039
806.336	3222
806.478	3036
806.62	2948
806.762	2971
806.904	3047
807.046	3142
807.188	2975
807.33	2925
807.472	2975
807.614	2937
807.756	2971
807.898	2922
808.04	2880
808.182	3028
808.324	2899
808.465	2899
808.607	2853
808.749	2777
808.891	2845
809.033	2971
809.174	2979
809.316	2868
809.458	2925
809.6	2796
809.741	2735
809.883	2754
810.025	2845
810.166	2830
810.308	2815
810.45	2834
810.591	2758
810.733	2769
810.875	2823
811.016	2758
811.158	2731
811.299	2800
811.441	2899
811.582	2925
811.724	2853
811.865	2804
812.007	2899
812.148	2891
812.29	2830
812.431	2880
812.573	2937
812.714	2944
812.855	3032
812.997	3058
813.138	3100
813.279	3009
813.421	2971
813.562	2914
813.703	2910
813.845	2906
813.986	2785
814.127	2739
814.268	2823
814.41	2815
814.551	2819
814.692	2887
814.833	2842
814.974	2887
815.115	2952
815.256	2826
815.397	2815
815.539	2845
815.68	2773
815.821	2773
815.962	2914
816.103	2941
816.244	2868
816.385	2872
816.526	2979
816.666	2883
816.807	2735
816.948	2864
817.089	2880
817.23	2864
817.371	2769
817.512	2800
817.653	2887
817.793	2811
817.934	2883
818.075	2979
818.216	2963
818.356	3017
818.497	2857
818.638	2807
818.778	2857
818.919	2800
819.06	2735
819.2	2914
819.341	2807
819.481	2773
819.622	2922
819.762	3112
819.903	3013
820.043	2929
820.184	2883
820.324	2876
820.465	3013
820.605	3001
820.746	3009
820.886	2914
821.026	3081
821.167	3180
821.307	3253
821.447	3268
821.588	3249
821.728	3214
821.868	3195
822.008	3055
822.149	3142
822.289	3256
822.429	3104
822.569	3100
822.709	3161
822.849	3005
822.99	3062
823.13	3180
823.27	3195
823.41	3074
823.55	3146
823.69	3112
823.83	3180
823.97	3108
824.11	3009
824.25	2979
824.389	3066
824.529	3150
824.669	3051
824.809	3165
824.949	3226
825.089	3245
825.228	3154
825.368	3005
825.508	2956
825.648	2956
825.787	3024
825.927	3001
826.067	2994
826.206	2933
826.346	3032
826.485	3077
826.625	3066
826.765	3237
826.904	3188
827.044	2967
827.183	2925
827.323	2876
827.462	2986
827.601	2883
827.741	2914
827.88	2918
828.02	2872
828.159	2963
828.298	3051
828.437	3157
828.577	3036
828.716	3245
828.855	3119
828.994	2929
829.134	2906
829.273	2952
829.412	2906
829.551	2807
829.69	2906
829.829	2971
829.968	3131
830.107	3013
830.246	3001
830.385	2941
830.524	2876
830.663	2819
830.802	2743
830.941	2625
831.08	2667
831.219	2762
831.357	2773
831.496	2952
831.635	2712
831.774	2655
831.913	2659
832.051	2530
832.19	2556
832.329	2693
832.467	2560
832.606	2488
832.744	2564
832.883	2560
833.022	2530
833.16	2629
833.299	2689
833.437	2667
833.576	2670
833.714	2708
833.852	2743
833.991	2785
834.129	2849
834.267	2788
834.406	2796
834.544	2857
834.682	2883
834.821	2834
834.959	3043
835.097	2887
835.235	3062
835.373	2971
835.511	3017
835.65	2944
835.788	2971
835.926	2834
836.064	2800
836.202	2834
836.34	3085
836.478	3150
836.615	3070
836.753	3116
836.891	3195
837.029	3176
837.167	3081
837.305	3047
837.443	3051
837.58	2994
837.718	3135
837.856	3047
837.993	3043
838.131	3119
838.269	3112
838.406	3112
838.544	3043
838.681	2948
838.819	2895
838.956	2842
839.094	2830
839.231	2902
839.369	3009
839.506	3344
839.643	3188
839.781	3013
839.918	2979
840.055	3058
840.193	3055
840.33	3047
840.467	3077
840.604	3135
840.742	3374
840.879	3051
841.016	3024
841.153	3089
841.29	3317
841.427	3302
841.564	3294
841.701	3279
841.838	3211
841.975	3211
842.112	3214
842.249	3077
842.385	3009
842.522	3222
842.659	3062
842.796	3055
842.933	3097
843.069	3009
843.206	3017
843.343	3161
843.479	3093
843.616	3100
843.752	2902
843.889	2864
844.025	3100
844.162	2880
844.298	3055
844.435	2910
844.571	2876
844.708	3131
844.844	3192
844.98	3211
845.117	3161
845.253	3051
845.389	2998
845.525	3085
845.661	3104
845.798	3028
845.934	3123
846.07	3077
846.206	3176
846.342	3317
846.478	3203
846.614	3097
846.75	3074
846.886	3039
847.022	3207
847.158	3135
847.294	3192
847.429	3218
847.565	3184
847.701	3462
847.837	3024
847.972	2998
848.108	3161
848.244	3119
848.379	2971
848.515	2933
848.65	2910
848.786	2956
848.921	3009
849.057	3100
849.192	3142
849.328	3077
849.463	3062
849.598	3062
849.734	3028
849.869	2922
850.004	2910
850.14	2963
850.275	2925
850.41	2861
850.545	2838
850.68	2910
850.815	2929
850.95	2986
851.085	3230
851.22	3047
851.355	3024
851.49	2956
851.625	3009
851.76	2979
851.895	2922
852.03	2899
852.165	3009
852.299	3146
852.434	3173
852.569	3131
852.703	3165
852.838	3233
852.973	3340
853.107	3313
853.242	3142
853.376	3070
853.511	2994
853.645	3051
853.78	3253
853.914	3108
854.048	3112
854.183	3104
854.317	3176
854.451	3245
854.585	3100
854.72	3085
854.854	3184
854.988	3036
855.122	3097
855.256	3001
855.39	3146
855.524	3256
855.658	3169
855.792	3146
855.926	3203
856.06	3214
856.194	3241
856.327	3135
856.461	3066
856.595	3097
856.729	3089
856.862	3203
856.996	3123
857.13	3184
857.263	3233
857.397	3287
857.53	3131
857.664	3180
857.797	3211
857.931	3214
858.064	3161
858.197	3180
858.331	3116
858.464	3066
858.597	3017
858.731	3150
858.864	3108
858.997	3043
859.13	3180
859.263	3154
859.396	3241
859.529	3089
859.662	3074
859.795	3039
859.928	3176
860.061	3241
860.194	3256
860.327	3131
860.46	3112
860.592	3199
860.725	3237
860.858	3245
860.99	3116
861.123	3020
861.256	3032
861.388	3116
861.521	3819
861.653	3039
861.786	3020
861.918	2975
862.05	3043
862.183	3093
862.315	3138
862.447	3233
862.58	3047
862.712	2910
862.844	2868
862.976	3009
863.108	2982
863.24	3428
863.372	2918
863.504	2941
863.636	2922
863.768	3032
863.9	2990
864.032	2895
864.164	2967
864.296	3013
864.428	3093
864.559	3104
864.691	3081
864.823	3100
864.954	3020
865.086	3032
865.217	2979
865.349	2918
865.48	2952
865.612	3017
865.743	3104
865.875	2933
866.006	2967
866.137	2975
866.269	2948
866.4	2902
866.531	2895
866.662	2895
866.793	2891
866.924	2948
867.055	2963
867.186	2960
867.317	2883
867.448	2796
867.579	2842
867.71	2830
867.841	2807
867.972	2876
868.103	2887
868.233	2887
868.364	2864
868.495	2929
868.625	3077
868.756	3142
868.886	2967
869.017	3028
869.147	3131
869.278	3146
869.408	3036
869.539	3051
869.669	3085
869.799	3058
869.929	3123
870.06	3055
870.19	3298
870.32	3287
870.45	3294
870.58	3378
870.71	3450
870.84	3447
870.97	3313
871.1	3233
871.23	3462
871.36	3454
871.489	3370
871.619	3401
871.749	3401
871.879	3370
872.008	3443
872.138	3348
872.267	3275
872.397	3165
872.526	3097
872.656	2982
872.785	3089
872.915	3211
873.044	3298
873.173	3214
873.303	3233
873.432	3245
873.561	3218
873.69	3142
873.819	3123
873.948	3169
874.077	3135
874.206	3009
874.335	3062
874.464	3203
874.593	3329
874.722	3233
874.851	3401
874.979	3287
875.108	3298
875.237	3218
875.365	3127
875.494	3176
875.623	3253
875.751	3062
875.88	3146
876.008	3176
876.136	3184
876.265	3363
876.393	3530
876.521	3405
876.65	3386
876.778	3298
876.906	3237
877.034	3161
877.162	3237
877.29	3157
877.418	3275
877.546	3253
877.674	3230
877.802	3233
877.93	3214
878.058	3154
878.185	3104
878.313	3192
878.441	3169
878.568	3081
878.696	3161
878.824	3283
878.951	3294
879.079	3466
879.206	3629
879.333	3431
879.461	3306
879.588	3340
879.715	3477
879.842	3614
879.97	3374
880.097	3203
880.224	3135
880.351	3195
880.478	3192
880.605	3214
880.732	3203
880.859	3519
880.986	3302
881.112	3325
881.239	3173
881.366	3112
881.493	3036
881.619	3009
881.746	3074
881.872	3066
881.999	3097
882.125	3138
882.252	3237
882.378	3279
882.505	3420
882.631	3272
882.757	3192
882.883	3218
883.01	3218
883.136	3123
883.262	3138
883.388	3108
883.514	3302
883.64	3325
883.766	3294
883.892	3173
884.018	3230
884.143	3412
884.269	3545
884.395	3211
884.52	3150
884.646	3207
884.772	3116
884.897	3093
885.023	3222
885.148	3298
885.274	3386
885.399	3344
885.524	3256
885.65	3260
885.775	3294
885.9	3275
886.025	3431
886.15	3389
886.275	3279
886.4	3256
886.525	3302
886.65	3279
886.775	3249
886.9	3492
887.025	3637
887.149	3389
887.274	3211
887.399	3207
887.523	3195
887.648	3142
887.773	3184
887.897	3378
888.021	3401
888.146	3306
888.27	3424
888.395	3488
888.519	3405
888.643	3450
888.767	3435
888.891	3291
889.015	3256
889.139	3264
889.263	3233
889.387	3405
889.511	3534
889.635	3424
889.759	3313
889.883	3253
890.006	3363
890.13	3511
890.254	3241
890.377	3332
890.501	3199
890.624	3165
890.748	3310
890.871	3176
890.995	3104
891.118	3070
891.241	3241
891.364	3199
891.488	3310
891.611	3199
891.734	3214
891.857	3279
891.98	3256
892.103	3336
892.226	3233
892.349	3245
892.471	3112
892.594	3260
892.717	3302
892.839	3230
892.962	3283
893.085	3382
893.207	3313
893.33	3161
893.452	3203
893.575	3329
893.697	3241
893.819	3488
893.941	3526
894.064	3458
894.186	3256
894.308	3260
894.43	3431
894.552	3530
894.674	3473
894.796	3317
894.918	3279
895.04	3279
895.161	3439
895.283	3344
895.405	3313
895.526	3367
895.648	3435
895.769	3409
895.891	3443
896.012	3439
896.134	3405
896.255	3405
896.376	3378
896.498	3336
896.619	3420
896.74	3340
896.861	3428
896.982	3663
897.103	3823
897.224	3561
897.345	3485
897.466	3382
897.587	3511
897.708	3652
897.828	3606
897.949	3424
898.07	3336
898.19	3428
898.311	3568
898.431	3409
898.552	3504
898.672	3587
898.792	3587
898.913	3500
899.033	3378
899.153	3268
899.273	3218
899.393	3249
899.513	3291
899.633	3279
899.753	3321
899.873	3294
899.993	3389
900.113	3336
900.232	3374
900.352	3332
900.472	3287
900.591	3214
900.711	3325
900.83	3207
900.95	3424
901.069	3473
901.189	3348
901.308	3233
901.427	3146
901.546	3176
901.665	3256
901.784	3344
901.904	3184
902.023	3127
902.141	2979
902.26	3005
902.379	3138
902.498	3077
902.617	3013
902.735	3218
902.854	3203
902.973	3165
903.091	3074
903.21	3089
903.328	3116
903.446	3100
903.565	3093
903.683	3180
903.801	3154
903.919	3260
904.038	3294
904.156	3176
904.274	3256
904.392	3237
904.51	3253
904.627	3306
904.745	3401
904.863	3485
904.981	3275
905.098	3173
905.216	3207
905.334	3272
905.451	3332
905.569	3275
905.686	3405
905.803	3428
905.921	3294
906.038	3386
906.155	3367
906.272	3245
906.389	3355
906.506	3260
906.623	3275
906.74	3275
906.857	3180
906.974	3256
907.091	3428
907.208	3526
907.324	3477
907.441	3348
907.557	3226
907.674	3230
907.79	3199
907.907	3245
908.023	3325
908.139	3412
908.256	3363
908.372	3317
908.488	3306
908.604	3256
908.72	3226
908.836	3283
908.952	3279
909.068	3279
909.184	3450
909.3	3401
909.415	3477
909.531	3473
909.647	3264
909.762	3310
909.878	3275
909.993	3367
910.108	3306
910.224	3386
910.339	3378
910.454	3329
910.57	3249
910.685	3230
910.8	3606
910.915	3534
911.03	3435
911.145	3260
911.259	3279
911.374	3298
911.489	3203
911.604	3233
911.718	3142
911.833	3138
911.947	3043
912.062	3009
912.176	3142
912.291	3207
912.405	3226
912.519	3428
912.633	3454
912.748	3317
912.862	3291
912.976	3135
913.09	3058
913.204	3085
913.318	3165
913.431	3332
913.545	3344
913.659	3374
913.772	3363
913.886	3218
914	3218
914.113	3351
914.226	3389
914.34	3409
914.453	3237
914.566	3428
914.68	3264
914.793	3313
914.906	3146
915.019	3089
915.132	3028
915.245	3169
915.358	3180
915.47	3188
915.583	3268
915.696	3287
915.809	3393
915.921	3416
916.034	3233
916.146	3207
916.259	3211
916.371	3401
916.483	3382
916.595	3253
916.708	3321
916.82	3317
916.932	3363
917.044	3317
917.156	3344
917.268	3230
917.38	3298
917.491	3268
917.603	3359
917.715	3454
917.826	3466
917.938	3359
918.049	3294
918.161	3401
918.272	3591
918.384	3561
918.495	3481
918.606	3332
918.717	3302
918.828	3370
918.939	3397
919.05	3272
919.161	3336
919.272	3218
919.383	3306
919.494	3481
919.604	3694
919.715	3485
919.826	3397
919.936	3496
920.047	3561
920.157	3545
920.267	3743
920.378	3625
920.488	3549
920.598	3755
920.708	3922
920.818	3774
920.928	3789
921.038	3991
921.148	3979
921.258	3698
921.368	3606
921.477	3587
921.587	3507
921.697	3409
921.806	3580
921.916	3530
922.025	3378
922.134	3313
922.244	3283
922.353	3389
922.462	3275
922.571	3211
922.68	3085
922.789	3066
922.898	3108
923.007	3085
923.116	3192
923.224	3150
923.333	3180
923.442	3097
923.55	3135
923.659	3108
923.767	3207
923.876	3123
923.984	3226
924.092	3066
924.201	3165
924.309	3226
924.417	3203
924.525	3165
924.633	3222
924.741	4147
924.849	3032
924.956	3237
925.064	3093
925.172	2998
925.279	3062
925.387	3176
925.494	3146
925.602	3340
925.709	3287
925.816	3146
925.924	3279
926.031	3340
926.138	3321
926.245	3344
926.352	3230
926.459	3431
926.566	3439
926.673	3272
926.779	3203
926.886	3222
926.993	3165
927.099	3142
927.206	3104
927.312	3135
927.419	3203
927.525	3192
927.631	3306
927.737	3127
927.843	3127
927.95	3036
928.056	3123
928.162	3165
928.267	3298
928.373	3793
928.479	3317
928.585	3085
928.69	3226
928.796	3249
928.901	3176
929.007	3055
929.112	3226
929.218	3192
929.323	3188
929.428	3173
929.533	3348
929.638	3135
929.743	3188
929.848	3306
929.953	3306
930.058	3192
930.163	3085
930.267	3100
930.372	3256
930.477	3047
930.581	3332
930.685	3203
930.79	3119
930.894	3127
930.998	3142
931.103	3306
931.207	2986
931.311	2998
931.415	2937
931.519	2834
931.623	2834
