Data from test_V78500241_5.txt Node
Date: Fri Mar 25 16:15:14 CST 2022
User: usil
Spectrometer: V785-0024
Trigger mode: 0
Integration Time (sec): 4.000000E-1
Scans to average: 1
Nonlinearity correction enabled: false
Boxcar width: 0
Storing dark spectrum: false
XAxis mode: Wavelengths
Number of Pixels in Spectrum: 1024
>>>>>Begin Spectral Data<<<<<
801.071	2975
801.214	2998
801.356	2941
801.499	3013
801.641	2944
801.783	3005
801.926	3112
802.068	3062
802.211	3081
802.353	3127
802.496	3032
802.638	3104
802.78	3100
802.923	3180
803.065	3066
803.208	2986
803.35	2979
803.492	2998
803.635	3013
803.777	2857
803.919	2941
804.061	3241
804.204	2994
804.346	2952
804.488	2925
804.63	3047
804.773	2960
804.915	2952
805.057	3138
805.199	2990
805.341	3028
805.483	3127
805.626	3104
805.768	3051
805.91	3131
806.052	3154
806.194	3142
806.336	3302
806.478	3085
806.62	2998
806.762	3055
806.904	3100
807.046	3245
807.188	3058
807.33	2960
807.472	3062
807.614	2986
807.756	3043
807.898	2971
808.04	2937
808.182	3043
808.324	2994
808.465	2944
808.607	2952
808.749	2876
808.891	2902
809.033	3077
809.174	3058
809.316	2925
809.458	2922
809.6	2785
809.741	2800
809.883	2826
810.025	2944
810.166	2906
810.308	2883
810.45	2933
810.591	2830
810.733	2853
810.875	2899
811.016	2800
811.158	2845
811.299	2883
811.441	2971
811.582	2960
811.724	2891
811.865	2929
812.007	2982
812.148	2944
812.29	2906
812.431	2979
812.573	3020
812.714	2998
812.855	3104
812.997	3093
813.138	3222
813.279	3127
813.421	3047
813.562	3024
813.703	2895
813.845	2963
813.986	2842
814.127	2777
814.268	2887
814.41	2929
814.551	2891
814.692	2925
814.833	2902
814.974	2956
815.115	2994
815.256	2914
815.397	2883
815.539	2906
815.68	2853
815.821	2853
815.962	3017
816.103	2975
816.244	2960
816.385	2910
816.526	3043
816.666	2975
816.807	2861
816.948	2952
817.089	2986
817.23	2914
817.371	2842
817.512	2842
817.653	2906
817.793	2838
817.934	2948
818.075	3047
818.216	3047
818.356	3074
818.497	2963
818.638	2838
818.778	2895
818.919	2842
819.06	2845
819.2	2937
819.341	2876
819.481	2853
819.622	3005
819.762	3157
819.903	3123
820.043	2933
820.184	2956
820.324	2937
820.465	3085
820.605	3100
820.746	3097
820.886	2986
821.026	3176
821.167	3230
821.307	3344
821.447	3336
821.588	3306
821.728	3287
821.868	3237
822.008	3138
822.149	3264
822.289	3313
822.429	3135
822.569	3169
822.709	3245
822.849	3089
822.99	3131
823.13	3260
823.27	3268
823.41	3135
823.55	3214
823.69	3188
823.83	3241
823.97	3165
824.11	3093
824.25	3081
824.389	3108
824.529	3157
824.669	3142
824.809	3241
824.949	3340
825.089	3283
825.228	3214
825.368	3070
825.508	3028
825.648	3013
825.787	3062
825.927	3081
826.067	3009
826.206	3032
826.346	3119
826.485	3138
826.625	3188
826.765	3340
826.904	3268
827.044	3032
827.183	2986
827.323	2914
827.462	3058
827.601	2971
827.741	3005
827.88	3020
828.02	2899
828.159	3009
828.298	3074
828.437	3146
828.577	3093
828.716	3321
828.855	3131
828.994	2986
829.134	2918
829.273	2979
829.412	2922
829.551	2922
829.69	2948
829.829	3062
829.968	3165
830.107	3085
830.246	3089
830.385	2975
830.524	2941
830.663	2861
830.802	2800
830.941	2693
831.08	2678
831.219	2826
831.357	2830
831.496	3009
831.635	2788
831.774	2705
831.913	2720
832.051	2583
832.19	2659
832.329	2716
832.467	2590
832.606	2514
832.744	2636
832.883	2610
833.022	2686
833.16	2712
833.299	2781
833.437	2781
833.576	2716
833.714	2773
833.852	2788
833.991	2788
834.129	2937
834.267	2902
834.406	2845
834.544	2925
834.682	2960
834.821	2952
834.959	3131
835.097	2982
835.235	3116
835.373	3028
835.511	3085
835.65	3009
835.788	3009
835.926	2902
836.064	2857
836.202	2872
836.34	3157
836.478	3245
836.615	3104
836.753	3184
836.891	3272
837.029	3207
837.167	3157
837.305	3104
837.443	3093
837.58	3024
837.718	3192
837.856	3100
837.993	3116
838.131	3214
838.269	3150
838.406	3150
838.544	3165
838.681	3024
838.819	3017
838.956	2883
839.094	2872
839.231	2990
839.369	3093
839.506	3462
839.643	3272
839.781	3089
839.918	3036
840.055	3055
840.193	3116
840.33	3112
840.467	3180
840.604	3214
840.742	3424
840.879	3116
841.016	3142
841.153	3165
841.29	3397
841.427	3359
841.564	3310
841.701	3374
841.838	3260
841.975	3199
842.112	3306
842.249	3154
842.385	3070
842.522	3317
842.659	3112
842.796	3089
842.933	3169
843.069	3142
843.206	3081
843.343	3241
843.479	3150
843.616	3218
843.752	2963
843.889	2944
844.025	3108
844.162	2922
844.298	3157
844.435	2979
844.571	3001
844.708	3119
844.844	3256
844.98	3306
845.117	3256
845.253	3131
845.389	3020
845.525	3176
845.661	3157
845.798	3074
845.934	3127
846.07	3108
846.206	3306
846.342	3363
846.478	3291
846.614	3165
846.75	3123
846.886	3108
847.022	3302
847.158	3211
847.294	3241
847.429	3287
847.565	3249
847.701	3515
847.837	3123
847.972	3119
848.108	3214
848.244	3199
848.379	3043
848.515	2982
848.65	2979
848.786	2994
848.921	3077
849.057	3199
849.192	3203
849.328	3104
849.463	3169
849.598	3127
849.734	3036
849.869	3028
850.004	2979
850.14	3051
850.275	3017
850.41	2864
850.545	2944
850.68	2971
850.815	2986
850.95	3020
851.085	3222
851.22	3195
851.355	3104
851.49	3070
851.625	3055
851.76	3100
851.895	3028
852.03	2971
852.165	3104
852.299	3161
852.434	3237
852.569	3214
852.703	3256
852.838	3321
852.973	3412
853.107	3386
853.242	3253
853.376	3116
853.511	3062
853.645	3097
853.78	3310
853.914	3173
854.048	3203
854.183	3165
854.317	3184
854.451	3348
854.585	3180
854.72	3135
854.854	3279
854.988	3074
855.122	3127
855.256	3020
855.39	3176
855.524	3291
855.658	3241
855.792	3184
855.926	3245
856.06	3287
856.194	3332
856.327	3199
856.461	3146
856.595	3135
856.729	3184
856.862	3256
856.996	3192
857.13	3233
857.263	3264
857.397	3313
857.53	3176
857.664	3241
857.797	3298
857.931	3317
858.064	3226
858.197	3287
858.331	3214
858.464	3176
858.597	3055
858.731	3176
858.864	3165
858.997	3131
859.13	3222
859.263	3253
859.396	3226
859.529	3176
859.662	3161
859.795	3077
859.928	3192
860.061	3306
860.194	3313
860.327	3203
860.46	3146
860.592	3325
860.725	3329
860.858	3287
860.99	3142
861.123	3097
861.256	3108
861.388	3203
861.521	3804
861.653	3070
861.786	3051
861.918	3036
862.05	3127
862.183	3161
862.315	3203
862.447	3268
862.58	3173
862.712	2971
862.844	2906
862.976	3100
863.108	3005
863.24	3507
863.372	2918
863.504	3036
863.636	3028
863.768	3085
863.9	3013
864.032	2971
864.164	3020
864.296	3097
864.428	3116
864.559	3161
864.691	3108
864.823	3116
864.954	3074
865.086	3081
865.217	3043
865.349	3017
865.48	3036
865.612	3081
865.743	3203
865.875	3039
866.006	2998
866.137	3039
866.269	3009
866.4	2975
866.531	2975
866.662	2975
866.793	2922
866.924	2941
867.055	3028
867.186	2982
867.317	2925
867.448	2887
867.579	2887
867.71	2891
867.841	2838
867.972	2941
868.103	2933
868.233	2922
868.364	2933
868.495	2944
868.625	3142
868.756	3214
868.886	3020
869.017	3089
869.147	3203
869.278	3214
869.408	3104
869.539	3085
869.669	3154
869.799	3112
869.929	3203
870.06	3116
870.19	3412
870.32	3336
870.45	3370
870.58	3454
870.71	3492
870.84	3507
870.97	3351
871.1	3272
871.23	3526
871.36	3504
871.489	3412
871.619	3504
871.749	3500
871.879	3500
872.008	3523
872.138	3435
872.267	3332
872.397	3161
872.526	3146
872.656	3070
872.785	3154
872.915	3264
873.044	3397
873.173	3275
873.303	3325
873.432	3279
873.561	3287
873.69	3199
873.819	3192
873.948	3253
874.077	3142
874.206	3085
874.335	3150
874.464	3268
874.593	3431
874.722	3329
874.851	3450
874.979	3424
875.108	3405
875.237	3237
875.365	3184
875.494	3222
875.623	3348
875.751	3180
875.88	3195
876.008	3241
876.136	3275
876.265	3435
876.393	3580
876.521	3450
876.65	3504
876.778	3420
876.906	3302
877.034	3268
877.162	3291
877.29	3249
877.418	3332
877.546	3264
877.674	3275
877.802	3256
877.93	3298
878.058	3230
878.185	3138
878.313	3241
878.441	3279
878.568	3135
878.696	3180
878.824	3336
878.951	3374
879.079	3462
879.206	3682
879.333	3504
879.461	3374
879.588	3416
879.715	3534
879.842	3656
879.97	3462
880.097	3233
880.224	3173
880.351	3256
880.478	3237
880.605	3272
880.732	3260
880.859	3534
880.986	3329
881.112	3374
881.239	3272
881.366	3131
881.493	3081
881.619	3055
881.746	3157
881.872	3146
881.999	3123
882.125	3176
882.252	3332
882.378	3348
882.505	3504
882.631	3344
882.757	3214
882.883	3264
883.01	3283
883.136	3233
883.262	3157
883.388	3176
883.514	3355
883.64	3424
883.766	3336
883.892	3230
884.018	3325
884.143	3462
884.269	3610
884.395	3264
884.52	3249
884.646	3218
884.772	3218
884.897	3154
885.023	3279
885.148	3416
885.274	3488
885.399	3443
885.524	3336
885.65	3351
885.775	3344
885.9	3355
886.025	3538
886.15	3435
886.275	3374
886.4	3313
886.525	3336
886.65	3355
886.775	3340
886.9	3587
887.025	3698
887.149	3469
887.274	3306
887.399	3222
887.523	3272
887.648	3218
887.773	3214
887.897	3450
888.021	3454
888.146	3351
888.27	3462
888.395	3610
888.519	3458
888.643	3481
888.767	3519
888.891	3401
889.015	3291
889.139	3340
889.263	3283
889.387	3462
889.511	3614
889.635	3488
889.759	3370
889.883	3348
890.006	3443
890.13	3580
890.254	3313
890.377	3409
890.501	3249
890.624	3287
890.748	3355
890.871	3237
890.995	3157
891.118	3108
891.241	3237
891.364	3310
891.488	3382
891.611	3275
891.734	3230
891.857	3351
891.98	3302
892.103	3405
892.226	3298
892.349	3291
892.471	3195
892.594	3279
892.717	3355
892.839	3306
892.962	3332
893.085	3431
893.207	3355
893.33	3211
893.452	3207
893.575	3355
893.697	3268
893.819	3523
893.941	3542
894.064	3553
894.186	3340
894.308	3351
894.43	3481
894.552	3618
894.674	3523
894.796	3340
894.918	3355
895.04	3359
895.161	3504
895.283	3439
895.405	3363
895.526	3409
895.648	3488
895.769	3485
895.891	3500
896.012	3557
896.134	3526
896.255	3450
896.376	3450
896.498	3397
896.619	3462
896.74	3420
896.861	3488
896.982	3751
897.103	3941
897.224	3690
897.345	3576
897.466	3469
897.587	3572
897.708	3660
897.828	3595
897.949	3511
898.07	3378
898.19	3454
898.311	3686
898.431	3481
898.552	3591
898.672	3682
898.792	3637
898.913	3542
899.033	3443
899.153	3306
899.273	3279
899.393	3367
899.513	3355
899.633	3378
899.753	3401
899.873	3310
899.993	3454
900.113	3412
900.232	3428
900.352	3386
900.472	3359
900.591	3256
900.711	3363
900.83	3329
900.95	3443
901.069	3523
901.189	3401
901.308	3268
901.427	3188
901.546	3233
901.665	3359
901.784	3424
901.904	3237
902.023	3207
902.141	3074
902.26	3024
902.379	3195
902.498	3154
902.617	3097
902.735	3306
902.854	3275
902.973	3272
903.091	3074
903.21	3123
903.328	3199
903.446	3180
903.565	3165
903.683	3264
903.801	3146
903.919	3287
904.038	3351
904.156	3222
904.274	3317
904.392	3268
904.51	3374
904.627	3382
904.745	3496
904.863	3564
904.981	3313
905.098	3222
905.216	3291
905.334	3367
905.451	3382
905.569	3389
905.686	3496
905.803	3492
905.921	3344
906.038	3500
906.155	3431
906.272	3329
906.389	3401
906.506	3291
906.623	3287
906.74	3332
906.857	3237
906.974	3336
907.091	3561
907.208	3599
907.324	3542
907.441	3431
907.557	3294
907.674	3287
907.79	3317
907.907	3363
908.023	3485
908.139	3439
908.256	3382
908.372	3439
908.488	3439
908.604	3321
908.72	3298
908.836	3336
908.952	3253
909.068	3370
909.184	3534
909.3	3435
909.415	3519
909.531	3523
909.647	3370
909.762	3306
909.878	3283
909.993	3389
910.108	3382
910.224	3367
910.339	3439
910.454	3397
910.57	3336
910.685	3313
910.8	3618
910.915	3606
911.03	3519
911.145	3340
911.259	3317
911.374	3367
911.489	3272
911.604	3279
911.718	3154
911.833	3203
911.947	3055
912.062	3032
912.176	3214
912.291	3249
912.405	3268
912.519	3492
912.633	3576
912.748	3405
912.862	3367
912.976	3237
913.09	3135
913.204	3188
913.318	3272
913.431	3359
913.545	3405
913.659	3450
913.772	3386
913.886	3272
914	3268
914.113	3416
914.226	3511
914.34	3409
914.453	3283
914.566	3469
914.68	3355
914.793	3378
914.906	3218
915.019	3173
915.132	3150
915.245	3211
915.358	3283
915.47	3272
915.583	3370
915.696	3359
915.809	3477
915.921	3492
916.034	3351
916.146	3302
916.259	3279
916.371	3428
916.483	3412
916.595	3355
916.708	3397
916.82	3416
916.932	3416
917.044	3397
917.156	3416
917.268	3306
917.38	3325
917.491	3401
917.603	3412
917.715	3545
917.826	3534
917.938	3439
918.049	3389
918.161	3473
918.272	3652
918.384	3656
918.495	3564
918.606	3431
918.717	3340
918.828	3435
918.939	3431
919.05	3336
919.161	3454
919.272	3249
919.383	3363
919.494	3580
919.604	3743
919.715	3561
919.826	3462
919.936	3576
920.047	3644
920.157	3614
920.267	3854
920.378	3740
920.488	3641
920.598	3838
920.708	4006
920.818	3888
920.928	3899
921.038	4105
921.148	4067
921.258	3781
921.368	3667
921.477	3641
921.587	3603
921.697	3515
921.806	3743
921.916	3606
922.025	3424
922.134	3481
922.244	3355
922.353	3481
922.462	3306
922.571	3279
922.68	3192
922.789	3146
922.898	3188
923.007	3150
923.116	3264
923.224	3241
923.333	3249
923.442	3165
923.55	3161
923.659	3203
923.767	3287
923.876	3165
923.984	3294
924.092	3176
924.201	3275
924.309	3283
924.417	3306
924.525	3233
924.633	3298
924.741	4253
924.849	3146
924.956	3329
925.064	3161
925.172	3097
925.279	3173
925.387	3253
925.494	3268
925.602	3401
925.709	3443
925.816	3283
925.924	3363
926.031	3428
926.138	3389
926.245	3416
926.352	3291
926.459	3466
926.566	3526
926.673	3340
926.779	3310
926.886	3298
926.993	3214
927.099	3165
927.206	3184
927.312	3173
927.419	3253
927.525	3264
927.631	3287
927.737	3173
927.843	3195
927.95	3058
928.056	3222
928.162	3218
928.267	3317
928.373	3816
928.479	3359
928.585	3142
928.69	3283
928.796	3313
928.901	3222
929.007	3116
929.112	3241
929.218	3184
929.323	3222
929.428	3211
929.533	3340
929.638	3195
929.743	3203
929.848	3291
929.953	3298
930.058	3230
930.163	3085
930.267	3093
930.372	3249
930.477	3074
930.581	3386
930.685	3260
930.79	3108
930.894	3184
930.998	3135
931.103	3332
931.207	3043
931.311	2990
931.415	2971
931.519	2826
931.623	2849
