Data from test_V78500241_2006.txt Node
Date: Fri Mar 25 16:29:05 CST 2022
User: usil
Spectrometer: V785-0024
Trigger mode: 0
Integration Time (sec): 4.000000E-1
Scans to average: 1
Nonlinearity correction enabled: false
Boxcar width: 0
Storing dark spectrum: false
XAxis mode: Wavelengths
Number of Pixels in Spectrum: 1024
>>>>>Begin Spectral Data<<<<<
801.071	2906
801.214	2956
801.356	2868
801.499	2891
801.641	2861
801.783	2948
801.926	3058
802.068	2979
802.211	3017
802.353	3024
802.496	2975
802.638	3001
802.78	3017
802.923	3116
803.065	3013
803.208	2861
803.35	2956
803.492	2941
803.635	2914
803.777	2792
803.919	2872
804.061	3195
804.204	2990
804.346	2910
804.488	2845
804.63	3028
804.773	2868
804.915	2891
805.057	3066
805.199	2929
805.341	2994
805.483	3058
805.626	3032
805.768	2956
805.91	3108
806.052	3062
806.194	3070
806.336	3222
806.478	2975
806.62	2956
806.762	3001
806.904	3081
807.046	3188
807.188	2971
807.33	2937
807.472	2998
807.614	2883
807.756	2994
807.898	2956
808.04	2891
808.182	2990
808.324	2971
808.465	2902
808.607	2895
808.749	2823
808.891	2823
809.033	2963
809.174	2963
809.316	2887
809.458	2853
809.6	2773
809.741	2758
809.883	2781
810.025	2880
810.166	2830
810.308	2849
810.45	2815
810.591	2762
810.733	2754
810.875	2845
811.016	2788
811.158	2727
811.299	2826
811.441	2910
811.582	2857
811.724	2826
811.865	2800
812.007	2895
812.148	2883
812.29	2853
812.431	2872
812.573	2929
812.714	2975
812.855	3028
812.997	3013
813.138	3119
813.279	3032
813.421	2998
813.562	2960
813.703	2872
813.845	2883
813.986	2777
814.127	2701
814.268	2819
814.41	2845
814.551	2792
814.692	2895
814.833	2826
814.974	2929
815.115	2963
815.256	2864
815.397	2823
815.539	2868
815.68	2792
815.821	2800
815.962	2929
816.103	2925
816.244	2838
816.385	2891
816.526	2948
816.666	2902
816.807	2746
816.948	2880
817.089	2895
817.23	2861
817.371	2823
817.512	2804
817.653	2804
817.793	2807
817.934	2868
818.075	2948
818.216	2982
818.356	3032
818.497	2880
818.638	2838
818.778	2777
818.919	2777
819.06	2792
819.2	2914
819.341	2807
819.481	2804
819.622	2922
819.762	3058
819.903	3055
820.043	2891
820.184	2868
820.324	2906
820.465	3028
820.605	3013
820.746	3009
820.886	2914
821.026	3123
821.167	3161
821.307	3184
821.447	3241
821.588	3253
821.728	3218
821.868	3195
822.008	3085
822.149	3180
822.289	3192
822.429	3055
822.569	3062
822.709	3192
822.849	3047
822.99	3043
823.13	3154
823.27	3188
823.41	3097
823.55	3142
823.69	3203
823.83	3176
823.97	3116
824.11	3017
824.25	2952
824.389	3055
824.529	3081
824.669	3066
824.809	3203
824.949	3268
825.089	3237
825.228	3150
825.368	2975
825.508	2960
825.648	2960
825.787	2998
825.927	3024
826.067	2960
826.206	2933
826.346	3047
826.485	3081
826.625	3112
826.765	3291
826.904	3207
827.044	3047
827.183	2979
827.323	2883
827.462	3032
827.601	2910
827.741	2944
827.88	2982
828.02	2861
828.159	2986
828.298	3066
828.437	3138
828.577	3081
828.716	3302
828.855	3108
828.994	2918
829.134	2883
829.273	2948
829.412	2902
829.551	2883
829.69	2929
829.829	3005
829.968	3161
830.107	3058
830.246	3020
830.385	2960
830.524	2933
830.663	2853
830.802	2746
830.941	2689
831.08	2670
831.219	2804
831.357	2792
831.496	3005
831.635	2785
831.774	2705
831.913	2689
832.051	2575
832.19	2632
832.329	2682
832.467	2594
832.606	2503
832.744	2613
832.883	2632
833.022	2632
833.16	2686
833.299	2720
833.437	2739
833.576	2735
833.714	2777
833.852	2766
833.991	2815
834.129	2853
834.267	2868
834.406	2838
834.544	2914
834.682	2948
834.821	2910
834.959	3135
835.097	2929
835.235	3077
835.373	3047
835.511	3055
835.65	2986
835.788	3005
835.926	2849
836.064	2849
836.202	2853
836.34	3142
836.478	3165
836.615	3142
836.753	3173
836.891	3249
837.029	3192
837.167	3154
837.305	3116
837.443	3077
837.58	3028
837.718	3135
837.856	3077
837.993	3039
838.131	3150
838.269	3097
838.406	3093
838.544	3146
838.681	2960
838.819	2979
838.956	2849
839.094	2864
839.231	2937
839.369	3081
839.506	3424
839.643	3275
839.781	3017
839.918	3001
840.055	3089
840.193	3108
840.33	3077
840.467	3127
840.604	3195
840.742	3424
840.879	3085
841.016	3085
841.153	3116
841.29	3363
841.427	3321
841.564	3291
841.701	3310
841.838	3253
841.975	3222
842.112	3268
842.249	3150
842.385	3077
842.522	3291
842.659	3131
842.796	3097
842.933	3119
843.069	3077
843.206	3051
843.343	3264
843.479	3108
843.616	3192
843.752	2914
843.889	2902
844.025	3119
844.162	2902
844.298	3112
844.435	2982
844.571	2963
844.708	3104
844.844	3211
844.98	3245
845.117	3211
845.253	3108
845.389	3074
845.525	3123
845.661	3169
845.798	3043
845.934	3135
846.07	3081
846.206	3218
846.342	3348
846.478	3260
846.614	3112
846.75	3104
846.886	3066
847.022	3302
847.158	3188
847.294	3214
847.429	3275
847.565	3260
847.701	3504
847.837	3074
847.972	3028
848.108	3195
848.244	3169
848.379	3039
848.515	2986
848.65	2929
848.786	2990
848.921	3043
849.057	3161
849.192	3161
849.328	3108
849.463	3104
849.598	3077
849.734	3081
849.869	2994
850.004	2933
850.14	2975
850.275	2952
850.41	2891
850.545	2899
850.68	2967
850.815	3013
850.95	2971
851.085	3214
851.22	3093
851.355	3119
851.49	3028
851.625	3051
851.76	3051
851.895	2979
852.03	2952
852.165	3051
852.299	3116
852.434	3165
852.569	3165
852.703	3226
852.838	3294
852.973	3332
853.107	3401
853.242	3169
853.376	3127
853.511	2998
853.645	3058
853.78	3268
853.914	3157
854.048	3138
854.183	3146
854.317	3142
854.451	3306
854.585	3154
854.72	3108
854.854	3233
854.988	3127
855.122	3138
855.256	2971
855.39	3146
855.524	3253
855.658	3211
855.792	3169
855.926	3192
856.06	3226
856.194	3313
856.327	3192
856.461	3116
856.595	3108
856.729	3081
856.862	3226
856.996	3169
857.13	3207
857.263	3230
857.397	3287
857.53	3146
857.664	3195
857.797	3317
857.931	3283
858.064	3203
858.197	3226
858.331	3180
858.464	3116
858.597	3074
858.731	3180
858.864	3131
858.997	3116
859.13	3184
859.263	3237
859.396	3214
859.529	3116
859.662	3100
859.795	3077
859.928	3214
860.061	3287
860.194	3310
860.327	3150
860.46	3097
860.592	3279
860.725	3264
860.858	3264
860.99	3184
861.123	3066
861.256	3055
861.388	3157
861.521	3888
861.653	3066
861.786	3036
861.918	3020
862.05	3097
862.183	3112
862.315	3161
862.447	3253
862.58	3146
862.712	3001
862.844	2883
862.976	3070
863.108	3024
863.24	3317
863.372	2914
863.504	3001
863.636	2948
863.768	3032
863.9	3001
864.032	2963
864.164	2952
864.296	3024
864.428	3081
864.559	3108
864.691	3024
864.823	3085
864.954	3062
865.086	3089
865.217	3066
865.349	2967
865.48	3009
865.612	3055
865.743	3203
865.875	2998
866.006	2990
866.137	3013
866.269	2963
866.4	2963
866.531	2944
866.662	2914
866.793	2914
866.924	2975
867.055	2979
867.186	2982
867.317	2891
867.448	2887
867.579	2883
867.71	2883
867.841	2830
867.972	2922
868.103	2937
868.233	2937
868.364	2876
868.495	2925
868.625	3081
868.756	3173
868.886	2979
869.017	3066
869.147	3195
869.278	3146
869.408	3074
869.539	3055
869.669	3119
869.799	3070
869.929	3146
870.06	3097
870.19	3329
870.32	3302
870.45	3313
870.58	3389
870.71	3424
870.84	3504
870.97	3317
871.1	3249
871.23	3481
871.36	3458
871.489	3370
871.619	3397
871.749	3439
871.879	3477
872.008	3515
872.138	3409
872.267	3340
872.397	3211
872.526	3180
872.656	3036
872.785	3138
872.915	3253
873.044	3351
873.173	3173
873.303	3264
873.432	3241
873.561	3237
873.69	3165
873.819	3211
873.948	3180
874.077	3119
874.206	3066
874.335	3097
874.464	3207
874.593	3340
874.722	3230
874.851	3412
874.979	3382
875.108	3348
875.237	3211
875.365	3173
875.494	3199
875.623	3249
875.751	3089
875.88	3146
876.008	3230
876.136	3253
876.265	3416
876.393	3523
876.521	3447
876.65	3409
876.778	3306
876.906	3283
877.034	3241
877.162	3272
877.29	3176
877.418	3313
877.546	3260
877.674	3279
877.802	3253
877.93	3256
878.058	3173
878.185	3116
878.313	3233
878.441	3184
878.568	3062
878.696	3192
878.824	3264
878.951	3321
879.079	3466
879.206	3622
879.333	3462
879.461	3348
879.588	3374
879.715	3469
879.842	3580
879.97	3393
880.097	3199
880.224	3207
880.351	3214
880.478	3218
880.605	3222
880.732	3203
880.859	3477
880.986	3325
881.112	3317
881.239	3222
881.366	3123
881.493	3032
881.619	3047
881.746	3077
881.872	3104
881.999	3127
882.125	3135
882.252	3237
882.378	3302
882.505	3431
882.631	3279
882.757	3203
882.883	3256
883.01	3241
883.136	3154
883.262	3112
883.388	3112
883.514	3302
883.64	3420
883.766	3325
883.892	3203
884.018	3230
884.143	3443
884.269	3545
884.395	3207
884.52	3184
884.646	3169
884.772	3138
884.897	3112
885.023	3169
885.148	3336
885.274	3462
885.399	3393
885.524	3302
885.65	3279
885.775	3370
885.9	3230
886.025	3443
886.15	3397
886.275	3351
886.4	3237
886.525	3306
886.65	3256
886.775	3302
886.9	3477
887.025	3644
887.149	3450
887.274	3207
887.399	3188
887.523	3241
887.648	3165
887.773	3211
887.897	3389
888.021	3412
888.146	3310
888.27	3435
888.395	3542
888.519	3412
888.643	3416
888.767	3477
888.891	3321
889.015	3245
889.139	3325
889.263	3268
889.387	3420
889.511	3515
889.635	3473
889.759	3283
889.883	3283
890.006	3386
890.13	3515
890.254	3310
890.377	3370
890.501	3222
890.624	3203
890.748	3367
890.871	3203
890.995	3123
891.118	3055
891.241	3199
891.364	3245
891.488	3306
891.611	3184
891.734	3222
891.857	3325
891.98	3249
892.103	3348
892.226	3279
892.349	3237
892.471	3142
892.594	3203
892.717	3302
892.839	3287
892.962	3291
893.085	3344
893.207	3287
893.33	3131
893.452	3180
893.575	3336
893.697	3275
893.819	3477
893.941	3530
894.064	3462
894.186	3287
894.308	3275
894.43	3431
894.552	3553
894.674	3500
894.796	3306
894.918	3291
895.04	3351
895.161	3450
895.283	3363
895.405	3359
895.526	3416
895.648	3443
895.769	3462
895.891	3469
896.012	3492
896.134	3492
896.255	3450
896.376	3424
896.498	3317
896.619	3420
896.74	3351
896.861	3443
896.982	3713
897.103	3835
897.224	3614
897.345	3572
897.466	3450
897.587	3507
897.708	3591
897.828	3549
897.949	3435
898.07	3313
898.19	3397
898.311	3629
898.431	3439
898.552	3515
898.672	3629
898.792	3568
898.913	3545
899.033	3428
899.153	3260
899.273	3226
899.393	3287
899.513	3336
899.633	3310
899.753	3370
899.873	3321
899.993	3405
900.113	3336
900.232	3344
900.352	3367
900.472	3317
900.591	3245
900.711	3310
900.83	3253
900.95	3454
901.069	3549
901.189	3363
901.308	3180
901.427	3142
901.546	3199
901.665	3291
901.784	3359
901.904	3218
902.023	3135
902.141	3039
902.26	2986
902.379	3173
902.498	3074
902.617	3036
902.735	3233
902.854	3222
902.973	3226
903.091	3112
903.21	3062
903.328	3146
903.446	3138
903.565	3123
903.683	3256
903.801	3116
903.919	3283
904.038	3279
904.156	3192
904.274	3268
904.392	3241
904.51	3268
904.627	3325
904.745	3462
904.863	3477
904.981	3233
905.098	3214
905.216	3233
905.334	3279
905.451	3302
905.569	3321
905.686	3481
905.803	3458
905.921	3302
906.038	3435
906.155	3340
906.272	3260
906.389	3302
906.506	3226
906.623	3233
906.74	3279
906.857	3199
906.974	3218
907.091	3492
907.208	3572
907.324	3481
907.441	3397
907.557	3241
907.674	3233
907.79	3211
907.907	3245
908.023	3359
908.139	3382
908.256	3329
908.372	3370
908.488	3363
908.604	3291
908.72	3249
908.836	3268
908.952	3253
909.068	3359
909.184	3496
909.3	3397
909.415	3500
909.531	3458
909.647	3294
909.762	3287
909.878	3268
909.993	3363
910.108	3367
910.224	3325
910.339	3431
910.454	3329
910.57	3294
910.685	3275
910.8	3568
910.915	3557
911.03	3412
911.145	3275
911.259	3256
911.374	3336
911.489	3264
911.604	3230
911.718	3116
911.833	3169
911.947	3009
912.062	3009
912.176	3184
912.291	3218
912.405	3230
912.519	3409
912.633	3462
912.748	3359
912.862	3245
912.976	3180
913.09	3081
913.204	3146
913.318	3218
913.431	3401
913.545	3336
913.659	3416
913.772	3348
913.886	3230
914	3226
914.113	3359
914.226	3420
914.34	3363
914.453	3241
914.566	3424
914.68	3287
914.793	3313
914.906	3176
915.019	3104
915.132	3066
915.245	3195
915.358	3230
915.47	3218
915.583	3245
915.696	3260
915.809	3389
915.921	3416
916.034	3256
916.146	3294
916.259	3241
916.371	3382
916.483	3393
916.595	3283
916.708	3348
916.82	3363
916.932	3382
917.044	3344
917.156	3351
917.268	3253
917.38	3310
917.491	3291
917.603	3351
917.715	3477
917.826	3466
917.938	3397
918.049	3260
918.161	3431
918.272	3564
918.384	3591
918.495	3504
918.606	3306
918.717	3268
918.828	3409
918.939	3469
919.05	3306
919.161	3386
919.272	3180
919.383	3291
919.494	3492
919.604	3686
919.715	3496
919.826	3405
919.936	3424
920.047	3553
920.157	3515
920.267	3762
920.378	3599
920.488	3564
920.598	3747
920.708	3930
920.818	3785
920.928	3797
921.038	4044
921.148	3956
921.258	3743
921.368	3618
921.477	3526
921.587	3557
921.697	3488
921.806	3625
921.916	3515
922.025	3382
922.134	3348
922.244	3336
922.353	3443
922.462	3268
922.571	3230
922.68	3100
922.789	3100
922.898	3165
923.007	3093
923.116	3199
923.224	3176
923.333	3176
923.442	3074
923.55	3039
923.659	3131
923.767	3161
923.876	3104
923.984	3256
924.092	3150
924.201	3207
924.309	3233
924.417	3218
924.525	3173
924.633	3230
924.741	4131
924.849	3066
924.956	3283
925.064	3070
925.172	3036
925.279	3127
925.387	3226
925.494	3211
925.602	3344
925.709	3378
925.816	3192
925.924	3287
926.031	3340
926.138	3363
926.245	3355
926.352	3275
926.459	3401
926.566	3469
926.673	3306
926.779	3256
926.886	3253
926.993	3138
927.099	3116
927.206	3093
927.312	3123
927.419	3203
927.525	3188
927.631	3302
927.737	3112
927.843	3108
927.95	3036
928.056	3142
928.162	3169
928.267	3226
928.373	3880
928.479	3321
928.585	3043
928.69	3195
928.796	3260
928.901	3146
929.007	3043
929.112	3150
929.218	3180
929.323	3211
929.428	3131
929.533	3336
929.638	3093
929.743	3165
929.848	3256
929.953	3211
930.058	3127
930.163	2975
930.267	3070
930.372	3195
930.477	3032
930.581	3321
930.685	3188
930.79	3104
930.894	3119
930.998	3146
931.103	3298
931.207	2937
931.311	2933
931.415	2948
931.519	2766
931.623	2826
