Data from test_V78500241_2295.txt Node
Date: Fri Mar 25 17:04:57 CST 2022
User: usil
Spectrometer: V785-0024
Trigger mode: 0
Integration Time (sec): 4.000000E-1
Scans to average: 1
Nonlinearity correction enabled: false
Boxcar width: 0
Storing dark spectrum: false
XAxis mode: Wavelengths
Number of Pixels in Spectrum: 1024
>>>>>Begin Spectral Data<<<<<
801.071	8024
801.214	7932
801.356	7788
801.499	7868
801.641	7772
801.783	7837
801.926	7997
802.068	7928
802.211	7913
802.353	8016
802.496	7906
802.638	7833
802.78	7913
802.923	7909
803.065	7917
803.208	7898
803.35	8008
803.492	8046
803.635	8145
803.777	8054
803.919	8111
804.061	8434
804.204	8206
804.346	8111
804.488	8016
804.63	8081
804.773	8031
804.915	8096
805.057	8290
805.199	8119
805.341	8153
805.483	8252
805.626	8202
805.768	8176
805.91	8119
806.052	8244
806.194	8119
806.336	8309
806.478	8092
806.62	7982
806.762	8187
806.904	8248
807.046	8484
807.188	8362
807.33	8305
807.472	8347
807.614	8164
807.756	8168
807.898	8050
808.04	7856
808.182	7917
808.324	7909
808.465	7940
808.607	8111
808.749	8107
808.891	8206
809.033	8252
809.174	8221
809.316	8081
809.458	8092
809.6	8016
809.741	8043
809.883	8012
810.025	8096
810.166	8058
810.308	8020
810.45	7959
810.591	7864
810.733	7807
810.875	7651
811.016	7525
811.158	7480
811.299	7624
811.441	7670
811.582	7620
811.724	7548
811.865	7502
812.007	7597
812.148	7609
812.29	7571
812.431	7719
812.573	7879
812.714	8020
812.855	8096
812.997	8229
813.138	8317
813.279	8183
813.421	8096
813.562	7879
813.703	7792
813.845	7689
813.986	7468
814.127	7236
814.268	7137
814.41	7179
814.551	7160
814.692	7175
814.833	7046
814.974	7118
815.115	7129
815.256	6970
815.397	6924
815.539	6909
815.68	6852
815.821	6791
815.962	6825
816.103	6840
816.244	6688
816.385	6662
816.526	6589
816.666	6479
816.807	6319
816.948	6422
817.089	6437
817.23	6422
817.371	6342
817.512	6372
817.653	6372
817.793	6338
817.934	6422
818.075	6350
818.216	6414
818.356	6388
818.497	6239
818.638	6155
818.778	6144
818.919	6144
819.06	6133
819.2	6292
819.341	6353
819.481	6357
819.622	6551
819.762	6715
819.903	6681
820.043	6627
820.184	6559
820.324	6608
820.465	6703
820.605	6673
820.746	6623
820.886	6547
821.026	6642
821.167	6707
821.307	6798
821.447	6806
821.588	6741
821.728	6620
821.868	6582
822.008	6372
822.149	6365
822.289	6350
822.429	6155
822.569	6087
822.709	6144
822.849	6003
822.99	5920
823.13	5942
823.27	6030
823.41	5836
823.55	5824
823.69	5805
823.83	5813
823.97	5707
824.11	5619
824.25	5520
824.389	5539
824.529	5630
824.669	5512
824.809	5665
824.949	5691
825.089	5680
825.228	5589
825.368	5467
825.508	5387
825.648	5417
825.787	5417
825.927	5410
826.067	5307
826.206	5303
826.346	5425
826.485	5406
826.625	5482
826.765	5592
826.904	5528
827.044	5235
827.183	5220
827.323	5174
827.462	5273
827.601	5227
827.741	5246
827.88	5261
828.02	5109
828.159	5273
828.298	5299
828.437	5398
828.577	5341
828.716	5474
828.855	5372
828.994	5140
829.134	5147
829.273	5254
829.412	5189
829.551	5185
829.69	5231
829.829	5296
829.968	5440
830.107	5349
830.246	5315
830.385	5216
830.524	5094
830.663	5128
830.802	5083
830.941	4934
831.08	4930
831.219	5060
831.357	4984
831.496	5132
831.635	4984
831.774	4870
831.913	4892
832.051	4793
832.19	4786
832.329	4873
832.467	4774
832.606	4691
832.744	4774
832.883	4786
833.022	4771
833.16	4850
833.299	4881
833.437	4831
833.576	4854
833.714	4881
833.852	4923
833.991	4953
834.129	4972
834.267	5037
834.406	4968
834.544	5003
834.682	4984
834.821	4984
834.959	5147
835.097	5022
835.235	5181
835.373	5117
835.511	5128
835.65	5033
835.788	5052
835.926	4908
836.064	4896
836.202	4968
836.34	5201
836.478	5280
836.615	5143
836.753	5273
836.891	5296
837.029	5315
837.167	5261
837.305	5216
837.443	5162
837.58	5033
837.718	5326
837.856	5185
837.993	5239
838.131	5292
838.269	5223
838.406	5254
838.544	5197
838.681	5064
838.819	5060
838.956	4919
839.094	4904
839.231	5014
839.369	5121
839.506	5433
839.643	5265
839.781	5094
839.918	5098
840.055	5174
840.193	5155
840.33	5113
840.467	5189
840.604	5231
840.742	5444
840.879	5083
841.016	5117
841.153	5220
841.29	5379
841.427	5364
841.564	5360
841.701	5387
841.838	5337
841.975	5265
842.112	5242
842.249	5212
842.385	5140
842.522	5357
842.659	5197
842.796	5185
842.933	5223
843.069	5204
843.206	5174
843.343	5357
843.479	5284
843.616	5250
843.752	5060
843.889	5098
844.025	5277
844.162	5045
844.298	5223
844.435	5094
844.571	5079
844.708	5212
844.844	5326
844.98	5425
845.117	5334
845.253	5181
845.389	5109
845.525	5204
845.661	5170
845.798	5079
845.934	5170
846.07	5090
846.206	5181
846.342	5296
846.478	5201
846.614	5033
846.75	5010
846.886	4949
847.022	5193
847.158	5052
847.294	5094
847.429	5155
847.565	5067
847.701	5398
847.837	4866
847.972	4835
848.108	4961
848.244	4995
848.379	4797
848.515	4740
848.65	4752
848.786	4759
848.921	4839
849.057	4870
849.192	4930
849.328	4820
849.463	4850
849.598	4866
849.734	4824
849.869	4744
850.004	4645
850.14	4679
850.275	4615
850.41	4565
850.545	4584
850.68	4622
850.815	4656
850.95	4691
851.085	4870
851.22	4820
851.355	4710
851.49	4611
851.625	4698
851.76	4664
851.895	4618
852.03	4542
852.165	4679
852.299	4714
852.434	4828
852.569	4782
852.703	4831
852.838	4839
852.973	4919
853.107	4919
853.242	4755
853.376	4733
853.511	4618
853.645	4641
853.78	4858
853.914	4725
854.048	4717
854.183	4714
854.317	4702
854.451	4881
854.585	4717
854.72	4672
854.854	4812
854.988	4611
855.122	4702
855.256	4493
855.39	4672
855.524	4801
855.658	4702
855.792	4736
855.926	4744
856.06	4797
856.194	4828
856.327	4679
856.461	4634
856.595	4675
856.729	4596
856.862	4793
856.996	4733
857.13	4725
857.263	4797
857.397	4862
857.53	4710
857.664	4767
857.797	4771
857.931	4816
858.064	4763
858.197	4812
858.331	4714
858.464	4626
858.597	4538
858.731	4675
858.864	4687
858.997	4607
859.13	4645
859.263	4679
859.396	4748
859.529	4577
859.662	4592
859.795	4523
859.928	4596
860.061	4809
860.194	4801
860.327	4630
860.46	4538
860.592	4729
860.725	4679
860.858	4755
860.99	4584
861.123	4550
861.256	4493
861.388	4599
861.521	5254
861.653	4527
861.786	4497
861.918	4527
862.05	4588
862.183	4580
862.315	4702
862.447	4603
862.58	4573
862.712	4409
862.844	4352
862.976	4474
863.108	4493
863.24	4915
863.372	4360
863.504	4440
863.636	4428
863.768	4516
863.9	4470
864.032	4360
864.164	4417
864.296	4527
864.428	4580
864.559	4558
864.691	4580
864.823	4580
864.954	4516
865.086	4519
865.217	4481
865.349	4455
865.48	4497
865.612	4527
865.743	4660
865.875	4481
866.006	4447
866.137	4478
866.269	4474
866.4	4493
866.531	4447
866.662	4417
866.793	4398
866.924	4443
867.055	4493
867.186	4436
867.317	4432
867.448	4417
867.579	4421
867.71	4455
867.841	4432
867.972	4485
868.103	4481
868.233	4459
868.364	4504
868.495	4500
868.625	4664
868.756	4771
868.886	4615
869.017	4634
869.147	4801
869.278	4816
869.408	4675
869.539	4679
869.669	4714
869.799	4710
869.929	4805
870.06	4721
870.19	4946
870.32	4968
870.45	4972
870.58	4987
870.71	5121
870.84	5098
870.97	4938
871.1	4946
871.23	5162
871.36	5159
871.489	5014
871.619	5132
871.749	5136
871.879	5128
872.008	5166
872.138	5071
872.267	5014
872.397	4881
872.526	4831
872.656	4691
872.785	4812
872.915	4923
873.044	5067
873.173	4980
873.303	4961
873.432	4968
873.561	4984
873.69	4873
873.819	4862
873.948	4843
874.077	4824
874.206	4854
874.335	4801
874.464	4980
874.593	5086
874.722	4984
874.851	5143
874.979	5086
875.108	5041
875.237	4942
875.365	4870
875.494	4915
875.623	4999
875.751	4831
875.88	4915
876.008	5025
876.136	5056
876.265	5185
876.393	5364
876.521	5288
876.65	5326
876.778	5155
876.906	5079
877.034	5079
877.162	5041
877.29	5025
877.418	5048
877.546	5086
877.674	5037
877.802	5045
877.93	5025
878.058	4930
878.185	4915
878.313	4980
878.441	4961
878.568	4866
878.696	4911
878.824	4980
878.951	5041
879.079	5113
879.206	5277
879.333	5098
879.461	4991
879.588	5033
879.715	5128
879.842	5197
879.97	5014
880.097	4816
880.224	4767
880.351	4805
880.478	4816
880.605	4816
880.732	4801
880.859	5102
880.986	4900
881.112	4889
881.239	4752
881.366	4679
881.493	4618
881.619	4630
881.746	4656
881.872	4664
881.999	4641
882.125	4710
882.252	4740
882.378	4847
882.505	4961
882.631	4839
882.757	4755
882.883	4721
883.01	4748
883.136	4687
883.262	4664
883.388	4626
883.514	4824
883.64	4835
883.766	4809
883.892	4653
884.018	4774
884.143	4938
884.269	5003
884.395	4698
884.52	4618
884.646	4668
884.772	4615
884.897	4626
885.023	4679
885.148	4767
885.274	4820
885.399	4809
885.524	4752
885.65	4710
885.775	4752
885.9	4733
886.025	4889
886.15	4771
886.275	4736
886.4	4649
886.525	4767
886.65	4679
886.775	4710
886.9	4911
887.025	5067
887.149	4824
887.274	4714
887.399	4577
887.523	4580
887.648	4569
887.773	4584
887.897	4752
888.021	4793
888.146	4694
888.27	4820
888.395	4927
888.519	4809
888.643	4805
888.767	4843
888.891	4656
889.015	4630
889.139	4668
889.263	4622
889.387	4763
889.511	4900
889.635	4873
889.759	4668
889.883	4656
890.006	4740
890.13	4850
890.254	4618
890.377	4660
890.501	4542
890.624	4493
890.748	4649
890.871	4523
890.995	4413
891.118	4417
891.241	4512
891.364	4573
891.488	4641
891.611	4538
891.734	4554
891.857	4622
891.98	4561
892.103	4714
892.226	4603
892.349	4527
892.471	4390
892.594	4519
892.717	4596
892.839	4569
892.962	4615
893.085	4668
893.207	4618
893.33	4485
893.452	4508
893.575	4714
893.697	4637
893.819	4736
893.941	4801
894.064	4824
894.186	4573
894.308	4603
894.43	4755
894.552	4866
894.674	4721
894.796	4558
894.918	4592
895.04	4550
895.161	4694
895.283	4675
895.405	4618
895.526	4641
895.648	4683
895.769	4683
895.891	4710
896.012	4767
896.134	4755
896.255	4679
896.376	4641
896.498	4656
896.619	4714
896.74	4588
896.861	4649
896.982	4915
897.103	5102
897.224	4847
897.345	4752
897.466	4744
897.587	4767
897.708	4881
897.828	4805
897.949	4675
898.07	4584
898.19	4637
898.311	4809
898.431	4656
898.552	4744
898.672	4816
898.792	4774
898.913	4759
899.033	4626
899.153	4504
899.273	4455
899.393	4508
899.513	4523
899.633	4504
899.753	4535
899.873	4542
899.993	4599
900.113	4569
900.232	4554
900.352	4580
900.472	4470
900.591	4379
900.711	4538
900.83	4466
900.95	4641
901.069	4717
901.189	4599
901.308	4390
901.427	4295
901.546	4383
901.665	4500
901.784	4580
901.904	4417
902.023	4360
902.141	4185
902.26	4207
902.379	4276
902.498	4265
902.617	4207
902.735	4356
902.854	4409
902.973	4367
903.091	4215
903.21	4234
903.328	4310
903.446	4272
903.565	4253
903.683	4383
903.801	4303
903.919	4329
904.038	4462
904.156	4314
904.274	4462
904.392	4421
904.51	4424
904.627	4485
904.745	4577
904.863	4668
904.981	4390
905.098	4299
905.216	4386
905.334	4424
905.451	4383
905.569	4478
905.686	4577
905.803	4546
905.921	4413
906.038	4531
906.155	4409
906.272	4375
906.389	4485
906.506	4363
906.623	4348
906.74	4402
906.857	4314
906.974	4348
907.091	4535
907.208	4683
907.324	4615
907.441	4508
907.557	4329
907.674	4352
907.79	4325
907.907	4432
908.023	4523
908.139	4462
908.256	4440
908.372	4538
908.488	4451
908.604	4413
908.72	4371
908.836	4390
908.952	4348
909.068	4443
909.184	4554
909.3	4485
909.415	4592
909.531	4565
909.647	4303
909.762	4329
909.878	4322
909.993	4451
910.108	4367
910.224	4440
910.339	4474
910.454	4375
910.57	4386
910.685	4280
910.8	4641
910.915	4626
911.03	4455
911.145	4291
911.259	4337
911.374	4360
911.489	4295
911.604	4306
911.718	4185
911.833	4246
911.947	4101
912.062	4078
912.176	4207
912.291	4219
912.405	4276
912.519	4485
912.633	4500
912.748	4375
912.862	4329
912.976	4169
913.09	4105
913.204	4192
913.318	4276
913.431	4402
913.545	4379
913.659	4383
913.772	4356
913.886	4272
914	4200
914.113	4432
914.226	4466
914.34	4352
914.453	4253
914.566	4405
914.68	4280
914.793	4291
914.906	4173
915.019	4135
915.132	4040
915.245	4227
915.358	4207
915.47	4227
915.583	4276
915.696	4306
915.809	4428
915.921	4409
916.034	4299
916.146	4219
916.259	4185
916.371	4409
916.483	4379
916.595	4306
916.708	4363
916.82	4337
916.932	4322
917.044	4322
917.156	4299
917.268	4181
917.38	4287
917.491	4322
917.603	4337
917.715	4447
917.826	4413
917.938	4344
918.049	4230
918.161	4375
918.272	4531
918.384	4538
918.495	4421
918.606	4310
918.717	4272
918.828	4337
918.939	4325
919.05	4272
919.161	4303
919.272	4097
919.383	4227
919.494	4447
919.604	4607
919.715	4459
919.826	4303
919.936	4394
920.047	4531
920.157	4470
920.267	4691
920.378	4508
920.488	4470
920.598	4714
920.708	4858
920.818	4721
920.928	4717
921.038	4919
921.148	4908
921.258	4615
921.368	4561
921.477	4489
921.587	4428
921.697	4386
921.806	4577
921.916	4447
922.025	4284
922.134	4310
922.244	4215
922.353	4352
922.462	4192
922.571	4135
922.68	4029
922.789	3964
922.898	4078
923.007	3998
923.116	4120
923.224	4082
923.333	4059
923.442	4006
923.55	3987
923.659	4029
923.767	4082
923.876	4055
923.984	4143
924.092	3953
924.201	4093
924.309	4093
924.417	4112
924.525	4097
924.633	4131
924.741	5041
924.849	3918
924.956	4143
925.064	3968
925.172	3907
925.279	3956
925.387	4051
925.494	4078
925.602	4219
925.709	4207
925.816	4040
925.924	4158
926.031	4246
926.138	4188
926.245	4215
926.352	4131
926.459	4268
926.566	4310
926.673	4116
926.779	4044
926.886	4128
926.993	4017
927.099	3983
927.206	3953
927.312	3930
927.419	4044
927.525	4025
927.631	4090
927.737	3949
927.843	3975
927.95	3842
928.056	3915
928.162	3972
928.267	4074
928.373	4664
928.479	4135
928.585	3888
928.69	3975
928.796	4109
928.901	3964
929.007	3857
929.112	4021
929.218	3953
929.323	3964
929.428	3949
929.533	4086
929.638	3922
929.743	3956
929.848	4029
929.953	4010
930.058	3911
930.163	3842
930.267	3827
930.372	3979
930.477	3808
930.581	4093
930.685	3953
930.79	3804
930.894	3930
930.998	3873
931.103	4055
931.207	3705
931.311	3690
931.415	3682
931.519	3542
931.623	3580
