Data from test_V78500241_2032.txt Node
Date: Fri Mar 25 17:03:07 CST 2022
User: usil
Spectrometer: V785-0024
Trigger mode: 0
Integration Time (sec): 4.000000E-1
Scans to average: 1
Nonlinearity correction enabled: false
Boxcar width: 0
Storing dark spectrum: false
XAxis mode: Wavelengths
Number of Pixels in Spectrum: 1024
>>>>>Begin Spectral Data<<<<<
801.071	7993
801.214	7974
801.356	7811
801.499	7841
801.641	7879
801.783	7814
801.926	7925
802.068	7963
802.211	7989
802.353	7978
802.496	7856
802.638	7864
802.78	7856
802.923	7898
803.065	7807
803.208	7814
803.35	7978
803.492	8054
803.635	8134
803.777	8073
803.919	8157
804.061	8400
804.204	8164
804.346	8050
804.488	7993
804.63	8008
804.773	7959
804.915	8126
805.057	8263
805.199	8183
805.341	8210
805.483	8168
805.626	8157
805.768	8153
805.91	8210
806.052	8195
806.194	8138
806.336	8290
806.478	8100
806.62	8027
806.762	8130
806.904	8248
807.046	8484
807.188	8381
807.33	8237
807.472	8206
807.614	8149
807.756	8073
807.898	8001
808.04	7841
808.182	7894
808.324	7860
808.465	7887
808.607	8031
808.749	8134
808.891	8237
809.033	8271
809.174	8168
809.316	8062
809.458	8027
809.6	8027
809.741	8046
809.883	8062
810.025	8062
810.166	8077
810.308	7989
810.45	7978
810.591	7765
810.733	7727
810.875	7647
811.016	7495
811.158	7476
811.299	7525
811.441	7715
811.582	7643
811.724	7567
811.865	7540
812.007	7533
812.148	7609
812.29	7655
812.431	7750
812.573	7837
812.714	8001
812.855	8161
812.997	8206
813.138	8282
813.279	8149
813.421	8073
813.562	7902
813.703	7826
813.845	7696
813.986	7400
814.127	7270
814.268	7171
814.41	7164
814.551	7129
814.692	7202
814.833	7084
814.974	7038
815.115	7088
815.256	6970
815.397	6966
815.539	6993
815.68	6772
815.821	6760
815.962	6833
816.103	6814
816.244	6730
816.385	6635
816.526	6536
816.666	6460
816.807	6334
816.948	6418
817.089	6414
817.23	6448
817.371	6376
817.512	6395
817.653	6403
817.793	6452
817.934	6334
818.075	6479
818.216	6433
818.356	6407
818.497	6258
818.638	6117
818.778	6175
818.919	6175
819.06	6117
819.2	6353
819.341	6311
819.481	6346
819.622	6555
819.762	6722
819.903	6692
820.043	6574
820.184	6578
820.324	6525
820.465	6642
820.605	6662
820.746	6650
820.886	6525
821.026	6635
821.167	6707
821.307	6760
821.447	6768
821.588	6703
821.728	6559
821.868	6498
822.008	6365
822.149	6410
822.289	6315
822.429	6083
822.569	6121
822.709	6114
822.849	5901
822.99	5893
823.13	5882
823.27	5939
823.41	5817
823.55	5710
823.69	5737
823.83	5802
823.97	5642
824.11	5482
824.25	5486
824.389	5554
824.529	5589
824.669	5566
824.809	5627
824.949	5646
825.089	5577
825.228	5509
825.368	5395
825.508	5330
825.648	5296
825.787	5398
825.927	5337
826.067	5299
826.206	5280
826.346	5368
826.485	5341
826.625	5326
826.765	5539
826.904	5417
827.044	5223
827.183	5155
827.323	5143
827.462	5181
827.601	5155
827.741	5143
827.88	5231
828.02	5086
828.159	5227
828.298	5337
828.437	5334
828.577	5288
828.716	5463
828.855	5318
828.994	5113
829.134	5166
829.273	5208
829.412	5113
829.551	5098
829.69	5170
829.829	5231
829.968	5360
830.107	5292
830.246	5330
830.385	5128
830.524	5143
830.663	5067
830.802	4965
830.941	4889
831.08	4911
831.219	4995
831.357	4984
831.496	5174
831.635	4938
831.774	4911
831.913	4889
832.051	4793
832.19	4717
832.329	4885
832.467	4679
832.606	4637
832.744	4717
832.883	4767
833.022	4736
833.16	4797
833.299	4870
833.437	4862
833.576	4835
833.714	4911
833.852	4908
833.991	4946
834.129	5010
834.267	4984
834.406	4957
834.544	5018
834.682	4999
834.821	4999
834.959	5204
835.097	5052
835.235	5121
835.373	5098
835.511	5143
835.65	5006
835.788	5067
835.926	4995
836.064	4885
836.202	4923
836.34	5132
836.478	5258
836.615	5185
836.753	5223
836.891	5326
837.029	5261
837.167	5269
837.305	5181
837.443	5204
837.58	5147
837.718	5315
837.856	5239
837.993	5212
838.131	5265
838.269	5212
838.406	5254
838.544	5204
838.681	5060
838.819	5041
838.956	4923
839.094	4946
839.231	5003
839.369	5113
839.506	5471
839.643	5284
839.781	5109
839.918	5140
840.055	5121
840.193	5155
840.33	5124
840.467	5166
840.604	5216
840.742	5459
840.879	5132
841.016	5094
841.153	5136
841.29	5410
841.427	5334
841.564	5349
841.701	5414
841.838	5334
841.975	5216
842.112	5258
842.249	5178
842.385	5086
842.522	5349
842.659	5216
842.796	5197
842.933	5269
843.069	5155
843.206	5201
843.343	5303
843.479	5292
843.616	5273
843.752	5041
843.889	4991
844.025	5258
844.162	5018
844.298	5242
844.435	5155
844.571	5064
844.708	5246
844.844	5334
844.98	5368
845.117	5345
845.253	5170
845.389	5079
845.525	5220
845.661	5204
845.798	5033
845.934	5132
846.07	5079
846.206	5212
846.342	5303
846.478	5201
846.614	5041
846.75	5010
846.886	4949
847.022	5197
847.158	5022
847.294	5094
847.429	5098
847.565	5109
847.701	5383
847.837	4911
847.972	4824
848.108	4984
848.244	5006
848.379	4820
848.515	4755
848.65	4717
848.786	4763
848.921	4790
849.057	4885
849.192	4938
849.328	4866
849.463	4889
849.598	4839
849.734	4778
849.869	4706
850.004	4736
850.14	4660
850.275	4653
850.41	4569
850.545	4588
850.68	4634
850.815	4679
850.95	4664
851.085	4866
851.22	4733
851.355	4641
851.49	4664
851.625	4675
851.76	4683
851.895	4580
852.03	4580
852.165	4672
852.299	4721
852.434	4793
852.569	4763
852.703	4782
852.838	4824
852.973	4957
853.107	4896
853.242	4748
853.376	4702
853.511	4569
853.645	4637
853.78	4824
853.914	4744
854.048	4714
854.183	4687
854.317	4729
854.451	4889
854.585	4668
854.72	4691
854.854	4816
854.988	4599
855.122	4656
855.256	4565
855.39	4675
855.524	4816
855.658	4790
855.792	4694
855.926	4729
856.06	4774
856.194	4847
856.327	4714
856.461	4630
856.595	4641
856.729	4691
856.862	4790
856.996	4729
857.13	4755
857.263	4771
857.397	4835
857.53	4683
857.664	4736
857.797	4816
857.931	4790
858.064	4668
858.197	4752
858.331	4698
858.464	4672
858.597	4474
858.731	4649
858.864	4656
858.997	4626
859.13	4611
859.263	4733
859.396	4721
859.529	4561
859.662	4580
859.795	4523
859.928	4668
860.061	4778
860.194	4820
860.327	4660
860.46	4580
860.592	4706
860.725	4752
860.858	4729
860.99	4630
861.123	4565
861.256	4546
861.388	4607
861.521	5345
861.653	4554
861.786	4459
861.918	4466
862.05	4455
862.183	4546
862.315	4641
862.447	4626
862.58	4550
862.712	4390
862.844	4352
862.976	4500
863.108	4474
863.24	4774
863.372	4371
863.504	4409
863.636	4436
863.768	4531
863.9	4470
864.032	4379
864.164	4451
864.296	4535
864.428	4550
864.559	4603
864.691	4615
864.823	4550
864.954	4474
865.086	4577
865.217	4504
865.349	4497
865.48	4497
865.612	4504
865.743	4649
865.875	4455
866.006	4428
866.137	4481
866.269	4485
866.4	4413
866.531	4413
866.662	4447
866.793	4386
866.924	4417
867.055	4493
867.186	4493
867.317	4470
867.448	4413
867.579	4440
867.71	4398
867.841	4371
867.972	4455
868.103	4447
868.233	4440
868.364	4466
868.495	4527
868.625	4736
868.756	4755
868.886	4584
869.017	4634
869.147	4805
869.278	4820
869.408	4710
869.539	4687
869.669	4668
869.799	4679
869.929	4748
870.06	4786
870.19	4942
870.32	4972
870.45	4904
870.58	4987
870.71	5117
870.84	5060
870.97	4968
871.1	4949
871.23	5189
871.36	5094
871.489	5052
871.619	5128
871.749	5105
871.879	5166
872.008	5227
872.138	5079
872.267	5006
872.397	4885
872.526	4843
872.656	4725
872.785	4812
872.915	4965
873.044	4976
873.173	4991
873.303	4976
873.432	4927
873.561	4957
873.69	4904
873.819	4892
873.948	4946
874.077	4862
874.206	4755
874.335	4812
874.464	4976
874.593	5060
874.722	4980
874.851	5117
874.979	5064
875.108	5014
875.237	4927
875.365	4919
875.494	4904
875.623	4946
875.751	4831
875.88	4896
876.008	5045
876.136	5041
876.265	5208
876.393	5357
876.521	5250
876.65	5220
876.778	5185
876.906	5045
877.034	5037
877.162	5083
877.29	4995
877.418	5052
877.546	5109
877.674	5067
877.802	5090
877.93	5060
878.058	4949
878.185	4915
878.313	4987
878.441	4938
878.568	4847
878.696	4938
878.824	5006
878.951	5003
879.079	5143
879.206	5307
879.333	5029
879.461	5014
879.588	4968
879.715	5147
879.842	5212
879.97	5025
880.097	4835
880.224	4786
880.351	4862
880.478	4839
880.605	4835
880.732	4843
880.859	5105
880.986	4927
881.112	4930
881.239	4801
881.366	4694
881.493	4615
881.619	4653
881.746	4672
881.872	4637
881.999	4691
882.125	4733
882.252	4816
882.378	4877
882.505	5006
882.631	4828
882.757	4744
882.883	4744
883.01	4691
883.136	4694
883.262	4634
883.388	4603
883.514	4908
883.64	4824
883.766	4809
883.892	4683
884.018	4740
884.143	4930
884.269	4972
884.395	4637
884.52	4626
884.646	4634
884.772	4611
884.897	4561
885.023	4668
885.148	4763
885.274	4908
885.399	4831
885.524	4733
885.65	4702
885.775	4771
885.9	4702
886.025	4801
886.15	4778
886.275	4698
886.4	4679
886.525	4729
886.65	4668
886.775	4653
886.9	4923
887.025	5029
887.149	4828
887.274	4679
887.399	4596
887.523	4558
887.648	4538
887.773	4580
887.897	4755
888.021	4778
888.146	4687
888.27	4820
888.395	4984
888.519	4824
888.643	4835
888.767	4797
888.891	4672
889.015	4580
889.139	4668
889.263	4607
889.387	4778
889.511	4911
889.635	4801
889.759	4675
889.883	4672
890.006	4717
890.13	4843
890.254	4649
890.377	4675
890.501	4569
890.624	4565
890.748	4660
890.871	4565
890.995	4409
891.118	4424
891.241	4535
891.364	4546
891.488	4611
891.611	4497
891.734	4535
891.857	4584
891.98	4565
892.103	4675
892.226	4603
892.349	4554
892.471	4413
892.594	4546
892.717	4626
892.839	4599
892.962	4626
893.085	4618
893.207	4611
893.33	4466
893.452	4569
893.575	4660
893.697	4588
893.819	4812
893.941	4816
894.064	4774
894.186	4584
894.308	4611
894.43	4744
894.552	4904
894.674	4771
894.796	4573
894.918	4649
895.04	4554
895.161	4698
895.283	4687
895.405	4573
895.526	4607
895.648	4691
895.769	4721
895.891	4759
896.012	4733
896.134	4733
896.255	4645
896.376	4656
896.498	4656
896.619	4672
896.74	4615
896.861	4660
896.982	4908
897.103	5071
897.224	4835
897.345	4759
897.466	4664
897.587	4774
897.708	4854
897.828	4793
897.949	4637
898.07	4580
898.19	4653
898.311	4889
898.431	4687
898.552	4733
898.672	4839
898.792	4801
898.913	4767
899.033	4607
899.153	4504
899.273	4436
899.393	4535
899.513	4542
899.633	4546
899.753	4577
899.873	4508
899.993	4607
900.113	4546
900.232	4596
900.352	4569
900.472	4443
900.591	4440
900.711	4512
900.83	4443
900.95	4660
901.069	4710
901.189	4573
901.308	4363
901.427	4352
901.546	4428
901.665	4500
901.784	4497
901.904	4394
902.023	4337
902.141	4234
902.26	4169
902.379	4329
902.498	4284
902.617	4280
902.735	4402
902.854	4360
902.973	4306
903.091	4192
903.21	4257
903.328	4314
903.446	4291
903.565	4268
903.683	4390
903.801	4291
903.919	4386
904.038	4462
904.156	4280
904.274	4478
904.392	4413
904.51	4432
904.627	4485
904.745	4573
904.863	4649
904.981	4424
905.098	4333
905.216	4356
905.334	4497
905.451	4421
905.569	4462
905.686	4565
905.803	4554
905.921	4390
906.038	4561
906.155	4493
906.272	4379
906.389	4447
906.506	4383
906.623	4383
906.74	4413
906.857	4295
906.974	4402
907.091	4584
907.208	4664
907.324	4603
907.441	4478
907.557	4363
907.674	4367
907.79	4322
907.907	4413
908.023	4500
908.139	4455
908.256	4443
908.372	4485
908.488	4462
908.604	4352
908.72	4329
908.836	4390
908.952	4394
909.068	4432
909.184	4615
909.3	4519
909.415	4596
909.531	4538
909.647	4455
909.762	4341
909.878	4360
909.993	4470
910.108	4398
910.224	4421
910.339	4485
910.454	4386
910.57	4375
910.685	4295
910.8	4641
910.915	4580
911.03	4500
911.145	4295
911.259	4356
911.374	4386
911.489	4303
911.604	4322
911.718	4173
911.833	4166
911.947	4067
912.062	4006
912.176	4207
912.291	4242
912.405	4280
912.519	4443
912.633	4485
912.748	4402
912.862	4306
912.976	4169
913.09	4044
913.204	4181
913.318	4284
913.431	4394
913.545	4417
913.659	4447
913.772	4360
913.886	4253
914	4227
914.113	4386
914.226	4409
914.34	4402
914.453	4249
914.566	4447
914.68	4341
914.793	4356
914.906	4177
915.019	4109
915.132	4071
915.245	4177
915.358	4185
915.47	4287
915.583	4249
915.696	4337
915.809	4402
915.921	4405
916.034	4238
916.146	4204
916.259	4238
916.371	4367
916.483	4318
916.595	4265
916.708	4306
916.82	4333
916.932	4325
917.044	4325
917.156	4356
917.268	4246
917.38	4314
917.491	4272
917.603	4310
917.715	4413
917.826	4402
917.938	4394
918.049	4272
918.161	4386
918.272	4500
918.384	4550
918.495	4440
918.606	4383
918.717	4276
918.828	4348
918.939	4386
919.05	4238
919.161	4303
919.272	4147
919.383	4242
919.494	4481
919.604	4668
919.715	4424
919.826	4360
919.936	4455
920.047	4512
920.157	4558
920.267	4710
920.378	4577
920.488	4497
920.598	4660
920.708	4889
920.818	4733
920.928	4767
921.038	4968
921.148	4915
921.258	4634
921.368	4546
921.477	4462
921.587	4470
921.697	4417
921.806	4554
921.916	4409
922.025	4284
922.134	4265
922.244	4246
922.353	4363
922.462	4162
922.571	4120
922.68	4010
922.789	4002
922.898	4006
923.007	4017
923.116	4112
923.224	4097
923.333	4109
923.442	3972
923.55	3972
923.659	4044
923.767	4097
923.876	4078
923.984	4158
924.092	3998
924.201	4112
924.309	4116
924.417	4143
924.525	4071
924.633	4112
924.741	5117
924.849	3926
924.956	4131
925.064	3964
925.172	3888
925.279	3964
925.387	4032
925.494	4074
925.602	4188
925.709	4181
925.816	4044
925.924	4143
926.031	4257
926.138	4227
926.245	4192
926.352	4071
926.459	4227
926.566	4265
926.673	4143
926.779	4067
926.886	4078
926.993	4025
927.099	3945
927.206	3937
927.312	3945
927.419	4036
927.525	4021
927.631	4097
927.737	3975
927.843	3899
927.95	3831
928.056	3937
928.162	3975
928.267	4074
928.373	4584
928.479	4112
928.585	3876
928.69	4086
928.796	4048
928.901	3949
929.007	3800
929.112	3964
929.218	3930
929.323	3918
929.428	3937
929.533	4112
929.638	3857
929.743	3926
929.848	4044
929.953	4021
930.058	3915
930.163	3816
930.267	3819
930.372	3998
930.477	3819
930.581	4055
930.685	3953
930.79	3808
930.894	3884
930.998	3838
931.103	4013
931.207	3686
931.311	3709
931.415	3720
931.519	3542
931.623	3530
