Data from test_V78500241_2628.txt Node
Date: Fri Mar 25 17:07:16 CST 2022
User: usil
Spectrometer: V785-0024
Trigger mode: 0
Integration Time (sec): 4.000000E-1
Scans to average: 1
Nonlinearity correction enabled: false
Boxcar width: 0
Storing dark spectrum: false
XAxis mode: Wavelengths
Number of Pixels in Spectrum: 1024
>>>>>Begin Spectral Data<<<<<
801.071	8016
801.214	7955
801.356	7807
801.499	7864
801.641	7868
801.783	7830
801.926	7970
802.068	7879
802.211	8024
802.353	8005
802.496	7917
802.638	7944
802.78	7879
802.923	7967
803.065	7890
803.208	7887
803.35	8024
803.492	8096
803.635	8229
803.777	8050
803.919	8103
804.061	8412
804.204	8103
804.346	8119
804.488	7925
804.63	8107
804.773	7978
804.915	8092
805.057	8427
805.199	8161
805.341	8164
805.483	8328
805.626	8240
805.768	8157
805.91	8237
806.052	8218
806.194	8115
806.336	8275
806.478	8050
806.62	8046
806.762	8183
806.904	8237
807.046	8454
807.188	8343
807.33	8282
807.472	8237
807.614	8100
807.756	8084
807.898	8024
808.04	7902
808.182	7917
808.324	7860
808.465	7894
808.607	8115
808.749	8157
808.891	8244
809.033	8309
809.174	8248
809.316	8126
809.458	8062
809.6	8001
809.741	7967
809.883	8058
810.025	8081
810.166	7970
810.308	8005
810.45	7951
810.591	7849
810.733	7719
810.875	7677
811.016	7529
811.158	7460
811.299	7578
811.441	7723
811.582	7666
811.724	7578
811.865	7559
812.007	7586
812.148	7575
812.29	7590
812.431	7784
812.573	7868
812.714	7955
812.855	8142
812.997	8248
813.138	8324
813.279	8180
813.421	8142
813.562	7955
813.703	7849
813.845	7803
813.986	7407
814.127	7297
814.268	7202
814.41	7156
814.551	7156
814.692	7194
814.833	7145
814.974	7042
815.115	7145
815.256	6962
815.397	6981
815.539	6966
815.68	6859
815.821	6829
815.962	6779
816.103	6810
816.244	6738
816.385	6646
816.526	6574
816.666	6551
816.807	6300
816.948	6490
817.089	6467
817.23	6445
817.371	6418
817.512	6426
817.653	6410
817.793	6346
817.934	6372
818.075	6525
818.216	6448
818.356	6357
818.497	6194
818.638	6106
818.778	6136
818.919	6159
819.06	6163
819.2	6403
819.341	6342
819.481	6414
819.622	6589
819.762	6749
819.903	6772
820.043	6570
820.184	6544
820.324	6627
820.465	6776
820.605	6662
820.746	6669
820.886	6532
821.026	6707
821.167	6707
821.307	6791
821.447	6787
821.588	6749
821.728	6608
821.868	6528
822.008	6323
822.149	6369
822.289	6388
822.429	6197
822.569	6106
822.709	6182
822.849	5984
822.99	5916
823.13	6011
823.27	5935
823.41	5821
823.55	5786
823.69	5737
823.83	5790
823.97	5703
824.11	5532
824.25	5558
824.389	5558
824.529	5619
824.669	5592
824.809	5627
824.949	5672
825.089	5630
825.228	5596
825.368	5421
825.508	5330
825.648	5364
825.787	5330
825.927	5357
826.067	5277
826.206	5231
826.346	5417
826.485	5429
826.625	5398
826.765	5543
826.904	5490
827.044	5216
827.183	5231
827.323	5140
827.462	5223
827.601	5185
827.741	5197
827.88	5185
828.02	5140
828.159	5254
828.298	5288
828.437	5376
828.577	5277
828.716	5444
828.855	5364
828.994	5162
829.134	5147
829.273	5212
829.412	5124
829.551	5102
829.69	5140
829.829	5208
829.968	5337
830.107	5265
830.246	5277
830.385	5220
830.524	5185
830.663	5041
830.802	4961
830.941	4896
831.08	4896
831.219	4980
831.357	4980
831.496	5162
831.635	4915
831.774	4850
831.913	4870
832.051	4759
832.19	4759
832.329	4828
832.467	4702
832.606	4603
832.744	4675
832.883	4763
833.022	4744
833.16	4793
833.299	4809
833.437	4805
833.576	4824
833.714	4847
833.852	4854
833.991	4877
834.129	4968
834.267	4965
834.406	4881
834.544	5006
834.682	4976
834.821	4968
834.959	5159
835.097	5025
835.235	5132
835.373	5071
835.511	5071
835.65	5052
835.788	5022
835.926	4911
836.064	4877
836.202	4930
836.34	5132
836.478	5242
836.615	5113
836.753	5216
836.891	5330
837.029	5246
837.167	5181
837.305	5155
837.443	5132
837.58	5102
837.718	5242
837.856	5201
837.993	5147
838.131	5242
838.269	5208
838.406	5220
838.544	5185
838.681	5037
838.819	5010
838.956	4927
839.094	4927
839.231	4953
839.369	5083
839.506	5410
839.643	5254
839.781	5014
839.918	5025
840.055	5071
840.193	5052
840.33	5136
840.467	5124
840.604	5178
840.742	5425
840.879	5052
841.016	5094
841.153	5159
841.29	5379
841.427	5330
841.564	5345
841.701	5417
841.838	5189
841.975	5246
842.112	5265
842.249	5143
842.385	5113
842.522	5341
842.659	5212
842.796	5159
842.933	5193
843.069	5193
843.206	5140
843.343	5307
843.479	5242
843.616	5250
843.752	5045
843.889	5010
844.025	5212
844.162	5029
844.298	5162
844.435	5060
844.571	5098
844.708	5189
844.844	5334
844.98	5364
845.117	5299
845.253	5098
845.389	5083
845.525	5185
845.661	5151
845.798	4995
845.934	5117
846.07	5094
846.206	5208
846.342	5318
846.478	5174
846.614	5025
846.75	4946
846.886	4904
847.022	5178
847.158	5010
847.294	5060
847.429	5102
847.565	5064
847.701	5288
847.837	4786
847.972	4774
848.108	4976
848.244	4957
848.379	4782
848.515	4679
848.65	4744
848.786	4748
848.921	4755
849.057	4858
849.192	4885
849.328	4797
849.463	4839
849.598	4854
849.734	4744
849.869	4721
850.004	4615
850.14	4691
850.275	4660
850.41	4512
850.545	4580
850.68	4603
850.815	4618
850.95	4626
851.085	4782
851.22	4748
851.355	4653
851.49	4630
851.625	4645
851.76	4626
851.895	4588
852.03	4535
852.165	4618
852.299	4721
852.434	4793
852.569	4733
852.703	4710
852.838	4820
852.973	4904
853.107	4930
853.242	4664
853.376	4649
853.511	4542
853.645	4649
853.78	4843
853.914	4668
854.048	4687
854.183	4672
854.317	4698
854.451	4843
854.585	4645
854.72	4634
854.854	4744
854.988	4607
855.122	4626
855.256	4565
855.39	4653
855.524	4748
855.658	4706
855.792	4752
855.926	4763
856.06	4729
856.194	4771
856.327	4683
856.461	4618
856.595	4645
856.729	4592
856.862	4748
856.996	4683
857.13	4748
857.263	4733
857.397	4824
857.53	4611
857.664	4683
857.797	4778
857.931	4809
858.064	4672
858.197	4710
858.331	4630
858.464	4607
858.597	4538
858.731	4618
858.864	4580
858.997	4607
859.13	4641
859.263	4694
859.396	4733
859.529	4630
859.662	4527
859.795	4603
859.928	4626
860.061	4816
860.194	4774
860.327	4573
860.46	4577
860.592	4752
860.725	4714
860.858	4725
860.99	4603
861.123	4535
861.256	4516
861.388	4637
861.521	5402
861.653	4424
861.786	4516
861.918	4485
862.05	4550
862.183	4558
862.315	4641
862.447	4637
862.58	4523
862.712	4440
862.844	4352
862.976	4428
863.108	4451
863.24	4752
863.372	4341
863.504	4428
863.636	4386
863.768	4493
863.9	4440
864.032	4333
864.164	4413
864.296	4421
864.428	4596
864.559	4584
864.691	4542
864.823	4535
864.954	4489
865.086	4485
865.217	4485
865.349	4413
865.48	4432
865.612	4493
865.743	4634
865.875	4531
866.006	4409
866.137	4436
866.269	4443
866.4	4440
866.531	4428
866.662	4421
866.793	4417
866.924	4394
867.055	4512
867.186	4424
867.317	4405
867.448	4447
867.579	4341
867.71	4371
867.841	4371
867.972	4451
868.103	4421
868.233	4455
868.364	4405
868.495	4531
868.625	4645
868.756	4778
868.886	4569
869.017	4641
869.147	4767
869.278	4740
869.408	4649
869.539	4641
869.669	4706
869.799	4649
869.929	4797
870.06	4736
870.19	4953
870.32	4919
870.45	4911
870.58	5029
870.71	5086
870.84	5102
870.97	4904
871.1	4900
871.23	5151
871.36	5098
871.489	4972
871.619	5071
871.749	5067
871.879	5136
872.008	5174
872.138	5094
872.267	5022
872.397	4881
872.526	4793
872.656	4752
872.785	4763
872.915	4991
873.044	5060
873.173	4946
873.303	4957
873.432	4949
873.561	4999
873.69	4877
873.819	4862
873.948	4908
874.077	4866
874.206	4793
874.335	4786
874.464	4938
874.593	5083
874.722	4987
874.851	5124
874.979	5067
875.108	5052
875.237	4923
875.365	4866
875.494	4892
875.623	5003
875.751	4763
875.88	4930
876.008	5033
876.136	5056
876.265	5174
876.393	5360
876.521	5273
876.65	5178
876.778	5128
876.906	5090
877.034	5025
877.162	4987
877.29	4987
877.418	5094
877.546	5025
877.674	5029
877.802	5025
877.93	5056
878.058	4987
878.185	4892
878.313	4980
878.441	4953
878.568	4809
878.696	4881
878.824	4972
878.951	4987
879.079	5162
879.206	5258
879.333	5155
879.461	4987
879.588	5003
879.715	5128
879.842	5208
879.97	5025
880.097	4790
880.224	4755
880.351	4797
880.478	4828
880.605	4831
880.732	4824
880.859	5060
880.986	4877
881.112	4892
881.239	4816
881.366	4668
881.493	4607
881.619	4558
881.746	4626
881.872	4660
881.999	4656
882.125	4660
882.252	4763
882.378	4854
882.505	4946
882.631	4816
882.757	4733
882.883	4714
883.01	4748
883.136	4664
883.262	4580
883.388	4596
883.514	4816
883.64	4828
883.766	4771
883.892	4622
884.018	4702
884.143	4828
884.269	4984
884.395	4683
884.52	4630
884.646	4630
884.772	4592
884.897	4607
885.023	4664
885.148	4748
885.274	4885
885.399	4793
885.524	4740
885.65	4736
885.775	4763
885.9	4687
886.025	4828
886.15	4793
886.275	4717
886.4	4687
886.525	4725
886.65	4736
886.775	4672
886.9	4870
887.025	5037
887.149	4843
887.274	4637
887.399	4561
887.523	4599
887.648	4580
887.773	4573
887.897	4778
888.021	4797
888.146	4660
888.27	4786
888.395	4892
888.519	4755
888.643	4831
888.767	4801
888.891	4656
889.015	4634
889.139	4683
889.263	4603
889.387	4694
889.511	4866
889.635	4797
889.759	4607
889.883	4626
890.006	4702
890.13	4858
890.254	4592
890.377	4698
890.501	4592
890.624	4535
890.748	4656
890.871	4504
890.995	4462
891.118	4344
891.241	4497
891.364	4542
891.488	4622
891.611	4523
891.734	4569
891.857	4588
891.98	4554
892.103	4618
892.226	4573
892.349	4535
892.471	4413
892.594	4573
892.717	4626
892.839	4603
892.962	4634
893.085	4660
893.207	4550
893.33	4428
893.452	4508
893.575	4664
893.697	4626
893.819	4786
893.941	4793
894.064	4774
894.186	4550
894.308	4588
894.43	4717
894.552	4824
894.674	4759
894.796	4558
894.918	4637
895.04	4550
895.161	4691
895.283	4622
895.405	4626
895.526	4622
895.648	4660
895.769	4664
895.891	4702
896.012	4759
896.134	4691
896.255	4698
896.376	4645
896.498	4607
896.619	4683
896.74	4580
896.861	4668
896.982	4938
897.103	5075
897.224	4828
897.345	4729
897.466	4710
897.587	4786
897.708	4824
897.828	4763
897.949	4717
898.07	4588
898.19	4618
898.311	4828
898.431	4687
898.552	4771
898.672	4767
898.792	4816
898.913	4752
899.033	4603
899.153	4512
899.273	4481
899.393	4512
899.513	4527
899.633	4531
899.753	4535
899.873	4565
899.993	4546
900.113	4523
900.232	4546
900.352	4538
900.472	4497
900.591	4375
900.711	4500
900.83	4455
900.95	4653
901.069	4679
901.189	4580
901.308	4348
901.427	4295
901.546	4409
901.665	4489
901.784	4500
901.904	4356
902.023	4306
902.141	4238
902.26	4185
902.379	4341
902.498	4207
902.617	4223
902.735	4344
902.854	4375
902.973	4375
903.091	4215
903.21	4257
903.328	4295
903.446	4276
903.565	4268
903.683	4375
903.801	4337
903.919	4398
904.038	4443
904.156	4333
904.274	4413
904.392	4417
904.51	4443
904.627	4508
904.745	4577
904.863	4634
904.981	4390
905.098	4303
905.216	4360
905.334	4432
905.451	4500
905.569	4443
905.686	4580
905.803	4558
905.921	4455
906.038	4546
906.155	4462
906.272	4379
906.389	4478
906.506	4318
906.623	4371
906.74	4363
906.857	4306
906.974	4360
907.091	4577
907.208	4626
907.324	4565
907.441	4512
907.557	4306
907.674	4341
907.79	4329
907.907	4390
908.023	4455
908.139	4470
908.256	4436
908.372	4462
908.488	4455
908.604	4379
908.72	4299
908.836	4367
908.952	4325
909.068	4455
909.184	4554
909.3	4493
909.415	4542
909.531	4584
909.647	4344
909.762	4352
909.878	4348
909.993	4462
910.108	4413
910.224	4375
910.339	4523
910.454	4405
910.57	4360
910.685	4295
910.8	4698
910.915	4592
911.03	4523
911.145	4276
911.259	4322
911.374	4379
911.489	4325
911.604	4265
911.718	4188
911.833	4215
911.947	4063
912.062	4063
912.176	4158
912.291	4272
912.405	4295
912.519	4489
912.633	4516
912.748	4402
912.862	4325
912.976	4223
913.09	4120
913.204	4135
913.318	4257
913.431	4337
913.545	4329
913.659	4443
913.772	4356
913.886	4253
914	4238
914.113	4371
914.226	4409
914.34	4398
914.453	4234
914.566	4436
914.68	4337
914.793	4318
914.906	4128
915.019	4143
915.132	4036
915.245	4188
915.358	4207
915.47	4242
915.583	4253
915.696	4333
915.809	4375
915.921	4394
916.034	4238
916.146	4287
916.259	4215
916.371	4363
916.483	4409
916.595	4253
916.708	4341
916.82	4341
916.932	4325
917.044	4325
917.156	4367
917.268	4227
917.38	4325
917.491	4268
917.603	4352
917.715	4436
917.826	4398
917.938	4314
918.049	4253
918.161	4398
918.272	4565
918.384	4493
918.495	4474
918.606	4280
918.717	4242
918.828	4318
918.939	4390
919.05	4230
919.161	4325
919.272	4158
919.383	4242
919.494	4424
919.604	4637
919.715	4413
919.826	4379
919.936	4447
920.047	4523
920.157	4470
920.267	4691
920.378	4577
920.488	4489
920.598	4729
920.708	4923
920.818	4797
920.928	4721
921.038	4965
921.148	4862
921.258	4634
921.368	4527
921.477	4493
921.587	4485
921.697	4360
921.806	4561
921.916	4413
922.025	4280
922.134	4268
922.244	4207
922.353	4287
922.462	4223
922.571	4112
922.68	4036
922.789	3964
922.898	4025
923.007	3968
923.116	4135
923.224	4040
923.333	4040
923.442	4006
923.55	3979
923.659	4010
923.767	4074
923.876	4006
923.984	4120
924.092	4040
924.201	4082
924.309	4074
924.417	4177
924.525	4048
924.633	4131
924.741	5029
924.849	3888
924.956	4139
925.064	3960
925.172	3892
925.279	3979
925.387	4059
925.494	4093
925.602	4204
925.709	4154
925.816	4063
925.924	4147
926.031	4227
926.138	4192
926.245	4234
926.352	4021
926.459	4234
926.566	4299
926.673	4154
926.779	4059
926.886	4090
926.993	4040
927.099	3956
927.206	3953
927.312	3861
927.419	4048
927.525	3998
927.631	4044
927.737	3956
927.843	3918
927.95	3854
928.056	3953
928.162	3979
928.267	4105
928.373	4546
928.479	4181
928.585	3865
928.69	4013
928.796	4086
928.901	4017
929.007	3842
929.112	4013
929.218	3994
929.323	3892
929.428	3949
929.533	4093
929.638	3964
929.743	3934
929.848	4036
929.953	3994
930.058	3926
930.163	3785
930.267	3854
930.372	3991
930.477	3850
930.581	4097
930.685	3953
930.79	3797
930.894	3873
930.998	3854
931.103	4048
931.207	3740
931.311	3724
931.415	3686
931.519	3504
931.623	3545
