Data from test_V78500241_2304.txt Node
Date: Fri Mar 25 17:05:01 CST 2022
User: usil
Spectrometer: V785-0024
Trigger mode: 0
Integration Time (sec): 4.000000E-1
Scans to average: 1
Nonlinearity correction enabled: false
Boxcar width: 0
Storing dark spectrum: false
XAxis mode: Wavelengths
Number of Pixels in Spectrum: 1024
>>>>>Begin Spectral Data<<<<<
801.071	7982
801.214	7932
801.356	7822
801.499	7879
801.641	7788
801.783	7811
801.926	7947
802.068	7963
802.211	7997
802.353	8050
802.496	7909
802.638	7868
802.78	7871
802.923	7974
803.065	7902
803.208	7894
803.35	8005
803.492	8134
803.635	8187
803.777	8084
803.919	8191
804.061	8560
804.204	8142
804.346	8031
804.488	7963
804.63	8126
804.773	8012
804.915	8145
805.057	8366
805.199	8172
805.341	8267
805.483	8263
805.626	8229
805.768	8161
805.91	8180
806.052	8218
806.194	8138
806.336	8336
806.478	8115
806.62	8107
806.762	8142
806.904	8275
807.046	8473
807.188	8347
807.33	8320
807.472	8336
807.614	8157
807.756	8206
807.898	8081
808.04	7887
808.182	7947
808.324	7940
808.465	7906
808.607	8031
808.749	8092
808.891	8164
809.033	8343
809.174	8199
809.316	8103
809.458	8103
809.6	8077
809.741	8027
809.883	8065
810.025	8123
810.166	8073
810.308	8081
810.45	8035
810.591	7856
810.733	7727
810.875	7666
811.016	7525
811.158	7506
811.299	7540
811.441	7700
811.582	7693
811.724	7597
811.865	7578
812.007	7559
812.148	7601
812.29	7689
812.431	7750
812.573	7909
812.714	7970
812.855	8134
812.997	8145
813.138	8271
813.279	8142
813.421	8088
813.562	7997
813.703	7845
813.845	7837
813.986	7518
814.127	7247
814.268	7263
814.41	7183
814.551	7198
814.692	7236
814.833	7126
814.974	7194
815.115	7122
815.256	7012
815.397	6928
815.539	7019
815.68	6882
815.821	6772
815.962	6840
816.103	6871
816.244	6703
816.385	6585
816.526	6578
816.666	6536
816.807	6350
816.948	6441
817.089	6479
817.23	6464
817.371	6391
817.512	6445
817.653	6380
817.793	6376
817.934	6429
818.075	6448
818.216	6464
818.356	6460
818.497	6266
818.638	6178
818.778	6152
818.919	6224
819.06	6186
819.2	6391
819.341	6308
819.481	6418
819.622	6532
819.762	6757
819.903	6715
820.043	6631
820.184	6620
820.324	6547
820.465	6768
820.605	6688
820.746	6665
820.886	6540
821.026	6757
821.167	6749
821.307	6814
821.447	6783
821.588	6658
821.728	6585
821.868	6460
822.008	6323
822.149	6334
822.289	6380
822.429	6140
822.569	6133
822.709	6152
822.849	5946
822.99	5844
823.13	5931
823.27	5954
823.41	5821
823.55	5805
823.69	5794
823.83	5802
823.97	5642
824.11	5520
824.25	5573
824.389	5562
824.529	5589
824.669	5558
824.809	5627
824.949	5661
825.089	5615
825.228	5581
825.368	5417
825.508	5341
825.648	5360
825.787	5376
825.927	5410
826.067	5254
826.206	5254
826.346	5391
826.485	5433
826.625	5398
826.765	5562
826.904	5497
827.044	5265
827.183	5223
827.323	5143
827.462	5181
827.601	5166
827.741	5197
827.88	5220
828.02	5117
828.159	5227
828.298	5330
828.437	5349
828.577	5299
828.716	5482
828.855	5322
828.994	5223
829.134	5170
829.273	5178
829.412	5147
829.551	5189
829.69	5231
829.829	5250
829.968	5406
830.107	5280
830.246	5265
830.385	5216
830.524	5124
830.663	5102
830.802	4972
830.941	4946
831.08	4938
831.219	5048
831.357	5003
831.496	5208
831.635	4961
831.774	4866
831.913	4839
832.051	4736
832.19	4778
832.329	4862
832.467	4702
832.606	4664
832.744	4740
832.883	4721
833.022	4691
833.16	4793
833.299	4835
833.437	4812
833.576	4850
833.714	4862
833.852	4850
833.991	4930
834.129	4949
834.267	4934
834.406	4927
834.544	4953
834.682	4995
834.821	5014
834.959	5159
835.097	4987
835.235	5136
835.373	5090
835.511	5064
835.65	5014
835.788	4965
835.926	4892
836.064	4877
836.202	4904
836.34	5151
836.478	5242
836.615	5147
836.753	5201
836.891	5322
837.029	5303
837.167	5212
837.305	5204
837.443	5140
837.58	5113
837.718	5288
837.856	5189
837.993	5170
838.131	5201
838.269	5178
838.406	5235
838.544	5201
838.681	5048
838.819	5045
838.956	4892
839.094	4858
839.231	4980
839.369	5060
839.506	5440
839.643	5299
839.781	5064
839.918	5052
840.055	5102
840.193	5083
840.33	5132
840.467	5147
840.604	5178
840.742	5414
840.879	5090
841.016	5143
841.153	5124
841.29	5368
841.427	5349
841.564	5258
841.701	5337
841.838	5318
841.975	5239
842.112	5299
842.249	5201
842.385	5083
842.522	5326
842.659	5159
842.796	5121
842.933	5189
843.069	5140
843.206	5170
843.343	5288
843.479	5254
843.616	5284
843.752	5052
843.889	5048
844.025	5197
844.162	5018
844.298	5204
844.435	5071
844.571	5029
844.708	5197
844.844	5261
844.98	5311
845.117	5311
845.253	5136
845.389	5079
845.525	5166
845.661	5189
845.798	5033
845.934	5155
846.07	5067
846.206	5216
846.342	5299
846.478	5166
846.614	5010
846.75	4957
846.886	4927
847.022	5143
847.158	5022
847.294	5071
847.429	5121
847.565	5060
847.701	5318
847.837	4873
847.972	4774
848.108	4976
848.244	4942
848.379	4729
848.515	4759
848.65	4748
848.786	4729
848.921	4767
849.057	4889
849.192	4923
849.328	4820
849.463	4862
849.598	4847
849.734	4828
849.869	4694
850.004	4573
850.14	4675
850.275	4664
850.41	4569
850.545	4615
850.68	4645
850.815	4653
850.95	4698
851.085	4847
851.22	4759
851.355	4683
851.49	4656
851.625	4645
851.76	4675
851.895	4649
852.03	4588
852.165	4649
852.299	4740
852.434	4725
852.569	4790
852.703	4805
852.838	4870
852.973	4968
853.107	4976
853.242	4797
853.376	4687
853.511	4573
853.645	4736
853.78	4873
853.914	4725
854.048	4672
854.183	4683
854.317	4759
854.451	4873
854.585	4740
854.72	4675
854.854	4763
854.988	4599
855.122	4717
855.256	4596
855.39	4641
855.524	4801
855.658	4786
855.792	4797
855.926	4733
856.06	4812
856.194	4820
856.327	4740
856.461	4691
856.595	4641
856.729	4687
856.862	4790
856.996	4744
857.13	4771
857.263	4809
857.397	4809
857.53	4664
857.664	4748
857.797	4790
857.931	4843
858.064	4733
858.197	4797
858.331	4615
858.464	4641
858.597	4531
858.731	4710
858.864	4691
858.997	4691
859.13	4698
859.263	4752
859.396	4729
859.529	4664
859.662	4599
859.795	4546
859.928	4645
860.061	4801
860.194	4782
860.327	4668
860.46	4622
860.592	4767
860.725	4748
860.858	4733
860.99	4626
861.123	4561
861.256	4569
861.388	4630
861.521	5337
861.653	4546
861.786	4481
861.918	4493
862.05	4535
862.183	4596
862.315	4664
862.447	4702
862.58	4569
862.712	4485
862.844	4390
862.976	4504
863.108	4527
863.24	4949
863.372	4390
863.504	4428
863.636	4455
863.768	4523
863.9	4466
864.032	4421
864.164	4462
864.296	4485
864.428	4596
864.559	4565
864.691	4588
864.823	4550
864.954	4558
865.086	4577
865.217	4531
865.349	4474
865.48	4462
865.612	4550
865.743	4618
865.875	4531
866.006	4474
866.137	4493
866.269	4455
866.4	4451
866.531	4508
866.662	4440
866.793	4432
866.924	4504
867.055	4535
867.186	4512
867.317	4459
867.448	4394
867.579	4398
867.71	4417
867.841	4398
867.972	4478
868.103	4493
868.233	4489
868.364	4508
868.495	4550
868.625	4702
868.756	4736
868.886	4626
869.017	4611
869.147	4862
869.278	4831
869.408	4687
869.539	4725
869.669	4729
869.799	4721
869.929	4782
870.06	4782
870.19	5006
870.32	4927
870.45	4946
870.58	5056
870.71	5147
870.84	5098
870.97	4995
871.1	4965
871.23	5185
871.36	5143
871.489	5025
871.619	5079
871.749	5102
871.879	5166
872.008	5212
872.138	5121
872.267	5075
872.397	4889
872.526	4805
872.656	4767
872.785	4866
872.915	5006
873.044	5102
873.173	4957
873.303	5003
873.432	4953
873.561	4984
873.69	4919
873.819	4885
873.948	4976
874.077	4854
874.206	4778
874.335	4820
874.464	4980
874.593	5109
874.722	4972
874.851	5105
874.979	5102
875.108	5048
875.237	4927
875.365	4873
875.494	4949
875.623	5022
875.751	4881
875.88	4904
876.008	5025
876.136	5083
876.265	5261
876.393	5398
876.521	5284
876.65	5239
876.778	5216
876.906	5170
877.034	5029
877.162	5041
877.29	5003
877.418	5147
877.546	5136
877.674	5098
877.802	5079
877.93	4999
878.058	4927
878.185	4930
878.313	4976
878.441	4980
878.568	4824
878.696	4908
878.824	4999
878.951	5056
879.079	5170
879.206	5303
879.333	5140
879.461	5006
879.588	5045
879.715	5155
879.842	5288
879.97	5041
880.097	4831
880.224	4763
880.351	4854
880.478	4862
880.605	4866
880.732	4820
880.859	5105
880.986	4961
881.112	4919
881.239	4801
881.366	4694
881.493	4634
881.619	4611
881.746	4710
881.872	4656
881.999	4691
882.125	4687
882.252	4809
882.378	4854
882.505	5018
882.631	4858
882.757	4664
882.883	4759
883.01	4782
883.136	4664
883.262	4584
883.388	4641
883.514	4877
883.64	4866
883.766	4774
883.892	4702
884.018	4755
884.143	4972
884.269	5018
884.395	4679
884.52	4702
884.646	4691
884.772	4615
884.897	4554
885.023	4694
885.148	4816
885.274	4839
885.399	4839
885.524	4717
885.65	4691
885.775	4740
885.9	4774
886.025	4866
886.15	4828
886.275	4759
886.4	4687
886.525	4721
886.65	4706
886.775	4702
886.9	4908
887.025	5067
887.149	4797
887.274	4694
887.399	4577
887.523	4596
887.648	4599
887.773	4592
887.897	4778
888.021	4812
888.146	4679
888.27	4839
888.395	4919
888.519	4820
888.643	4797
888.767	4870
888.891	4706
889.015	4618
889.139	4672
889.263	4649
889.387	4774
889.511	4889
889.635	4812
889.759	4668
889.883	4687
890.006	4725
890.13	4816
890.254	4622
890.377	4698
890.501	4603
890.624	4554
890.748	4649
890.871	4519
890.995	4470
891.118	4436
891.241	4535
891.364	4554
891.488	4653
891.611	4516
891.734	4573
891.857	4603
891.98	4565
892.103	4653
892.226	4603
892.349	4554
892.471	4466
892.594	4584
892.717	4599
892.839	4596
892.962	4618
893.085	4675
893.207	4630
893.33	4531
893.452	4569
893.575	4668
893.697	4580
893.819	4824
893.941	4847
894.064	4805
894.186	4599
894.308	4603
894.43	4763
894.552	4828
894.674	4736
894.796	4580
894.918	4592
895.04	4596
895.161	4733
895.283	4698
895.405	4622
895.526	4714
895.648	4698
895.769	4717
895.891	4740
896.012	4790
896.134	4748
896.255	4656
896.376	4641
896.498	4615
896.619	4706
896.74	4634
896.861	4702
896.982	4953
897.103	5075
897.224	4820
897.345	4786
897.466	4714
897.587	4736
897.708	4839
897.828	4809
897.949	4725
898.07	4649
898.19	4637
898.311	4881
898.431	4721
898.552	4725
898.672	4866
898.792	4782
898.913	4710
899.033	4611
899.153	4516
899.273	4443
899.393	4516
899.513	4500
899.633	4512
899.753	4554
899.873	4558
899.993	4607
900.113	4561
900.232	4607
900.352	4538
900.472	4531
900.591	4421
900.711	4542
900.83	4470
900.95	4603
901.069	4694
901.189	4550
901.308	4413
901.427	4318
901.546	4390
901.665	4470
901.784	4516
901.904	4348
902.023	4375
902.141	4253
902.26	4162
902.379	4303
902.498	4261
902.617	4291
902.735	4318
902.854	4390
902.973	4371
903.091	4219
903.21	4204
903.328	4299
903.446	4295
903.565	4295
903.683	4443
903.801	4333
903.919	4421
904.038	4485
904.156	4383
904.274	4466
904.392	4348
904.51	4421
904.627	4512
904.745	4565
904.863	4679
904.981	4398
905.098	4306
905.216	4394
905.334	4497
905.451	4424
905.569	4451
905.686	4615
905.803	4550
905.921	4413
906.038	4542
906.155	4478
906.272	4470
906.389	4474
906.506	4348
906.623	4390
906.74	4432
906.857	4306
906.974	4375
907.091	4554
907.208	4702
907.324	4558
907.441	4489
907.557	4363
907.674	4413
907.79	4295
907.907	4363
908.023	4493
908.139	4523
908.256	4455
908.372	4466
908.488	4485
908.604	4367
908.72	4341
908.836	4390
908.952	4383
909.068	4462
909.184	4618
909.3	4455
909.415	4607
909.531	4569
909.647	4363
909.762	4375
909.878	4356
909.993	4462
910.108	4409
910.224	4428
910.339	4493
910.454	4459
910.57	4386
910.685	4325
910.8	4672
910.915	4592
911.03	4508
911.145	4310
911.259	4367
911.374	4394
911.489	4287
911.604	4306
911.718	4223
911.833	4173
911.947	4105
912.062	4040
912.176	4223
912.291	4257
912.405	4280
912.519	4462
912.633	4546
912.748	4383
912.862	4371
912.976	4211
913.09	4147
913.204	4196
913.318	4261
913.431	4405
913.545	4341
913.659	4451
913.772	4371
913.886	4246
914	4227
914.113	4386
914.226	4447
914.34	4409
914.453	4242
914.566	4436
914.68	4352
914.793	4329
914.906	4177
915.019	4173
915.132	4128
915.245	4230
915.358	4192
915.47	4242
915.583	4215
915.696	4329
915.809	4451
915.921	4436
916.034	4265
916.146	4257
916.259	4234
916.371	4413
916.483	4371
916.595	4249
916.708	4322
916.82	4314
916.932	4360
917.044	4337
917.156	4322
917.268	4268
917.38	4318
917.491	4280
917.603	4360
917.715	4409
917.826	4443
917.938	4398
918.049	4223
918.161	4459
918.272	4554
918.384	4550
918.495	4474
918.606	4310
918.717	4287
918.828	4356
918.939	4409
919.05	4272
919.161	4295
919.272	4116
919.383	4230
919.494	4485
919.604	4611
919.715	4413
919.826	4344
919.936	4428
920.047	4535
920.157	4470
920.267	4698
920.378	4550
920.488	4546
920.598	4752
920.708	4854
920.818	4702
920.928	4767
921.038	4961
921.148	4984
921.258	4622
921.368	4577
921.477	4542
921.587	4451
921.697	4360
921.806	4573
921.916	4413
922.025	4268
922.134	4291
922.244	4238
922.353	4363
922.462	4200
922.571	4154
922.68	4013
922.789	3998
922.898	4013
923.007	3991
923.116	4093
923.224	4109
923.333	4071
923.442	4029
923.55	3975
923.659	4029
923.767	4074
923.876	4029
923.984	4128
924.092	3987
924.201	4112
924.309	4120
924.417	4139
924.525	4048
924.633	4097
924.741	5067
924.849	3884
924.956	4120
925.064	3991
925.172	3930
925.279	3968
925.387	4017
925.494	4067
925.602	4230
925.709	4219
925.816	4063
925.924	4147
926.031	4253
926.138	4124
926.245	4196
926.352	4128
926.459	4280
926.566	4299
926.673	4173
926.779	4074
926.886	4124
926.993	3945
927.099	4032
927.206	3956
927.312	3941
927.419	4067
927.525	4044
927.631	4097
927.737	3937
927.843	3968
927.95	3865
928.056	3937
928.162	3979
928.267	4051
928.373	4694
928.479	4112
928.585	3903
928.69	3983
928.796	4093
928.901	3994
929.007	3892
929.112	4040
929.218	3994
929.323	3945
929.428	3941
929.533	4131
929.638	3953
929.743	3937
929.848	4021
929.953	4010
930.058	3930
930.163	3766
930.267	3842
930.372	3975
930.477	3865
930.581	4109
930.685	3918
930.79	3831
930.894	3892
930.998	3876
931.103	4074
931.207	3690
931.311	3709
931.415	3709
931.519	3523
931.623	3561
