Data from test_V78500241_1564.txt Node
Date: Fri Mar 25 16:59:52 CST 2022
User: usil
Spectrometer: V785-0024
Trigger mode: 0
Integration Time (sec): 4.000000E-1
Scans to average: 1
Nonlinearity correction enabled: false
Boxcar width: 0
Storing dark spectrum: false
XAxis mode: Wavelengths
Number of Pixels in Spectrum: 1024
>>>>>Begin Spectral Data<<<<<
801.071	8020
801.214	7944
801.356	7769
801.499	7830
801.641	7784
801.783	7875
801.926	7928
802.068	7963
802.211	7974
802.353	7963
802.496	7868
802.638	7841
802.78	7902
802.923	7947
803.065	7807
803.208	7902
803.35	8008
803.492	8050
803.635	8164
803.777	8001
803.919	8149
804.061	8450
804.204	8218
804.346	8126
804.488	7932
804.63	8100
804.773	7982
804.915	8092
805.057	8317
805.199	8187
805.341	8149
805.483	8244
805.626	8183
805.768	8153
805.91	8191
806.052	8279
806.194	8088
806.336	8263
806.478	8081
806.62	8001
806.762	8130
806.904	8263
807.046	8446
807.188	8389
807.33	8301
807.472	8317
807.614	8081
807.756	8180
807.898	8005
808.04	7849
808.182	7932
808.324	7875
808.465	7909
808.607	8065
808.749	8218
808.891	8202
809.033	8271
809.174	8199
809.316	8092
809.458	8096
809.6	7955
809.741	7955
809.883	8027
810.025	8092
810.166	8046
810.308	8012
810.45	7959
810.591	7799
810.733	7666
810.875	7601
811.016	7540
811.158	7457
811.299	7544
811.441	7738
811.582	7624
811.724	7544
811.865	7540
812.007	7571
812.148	7563
812.29	7651
812.431	7670
812.573	7830
812.714	7947
812.855	8168
812.997	8233
813.138	8305
813.279	8168
813.421	8069
813.562	7932
813.703	7890
813.845	7731
813.986	7434
814.127	7259
814.268	7202
814.41	7263
814.551	7228
814.692	7236
814.833	7091
814.974	7042
815.115	7099
815.256	6970
815.397	6909
815.539	6951
815.68	6798
815.821	6760
815.962	6867
816.103	6745
816.244	6658
816.385	6593
816.526	6616
816.666	6540
816.807	6300
816.948	6426
817.089	6483
817.23	6433
817.371	6342
817.512	6391
817.653	6315
817.793	6369
817.934	6403
818.075	6471
818.216	6410
818.356	6445
818.497	6247
818.638	6087
818.778	6190
818.919	6129
819.06	6136
819.2	6311
819.341	6304
819.481	6357
819.622	6509
819.762	6692
819.903	6688
820.043	6578
820.184	6582
820.324	6566
820.465	6707
820.605	6669
820.746	6597
820.886	6502
821.026	6677
821.167	6623
821.307	6779
821.447	6741
821.588	6684
821.728	6593
821.868	6525
822.008	6270
822.149	6308
822.289	6334
822.429	6121
822.569	6049
822.709	6072
822.849	5897
822.99	5942
823.13	5950
823.27	5836
823.41	5805
823.55	5764
823.69	5771
823.83	5760
823.97	5653
824.11	5528
824.25	5516
824.389	5532
824.529	5589
824.669	5497
824.809	5634
824.949	5608
825.089	5642
825.228	5570
825.368	5433
825.508	5334
825.648	5303
825.787	5334
825.927	5341
826.067	5273
826.206	5273
826.346	5379
826.485	5357
826.625	5360
826.765	5524
826.904	5516
827.044	5269
827.183	5159
827.323	5136
827.462	5246
827.601	5128
827.741	5162
827.88	5174
828.02	5064
828.159	5216
828.298	5337
828.437	5307
828.577	5269
828.716	5448
828.855	5303
828.994	5151
829.134	5102
829.273	5178
829.412	5071
829.551	5117
829.69	5178
829.829	5204
829.968	5368
830.107	5265
830.246	5299
830.385	5181
830.524	5143
830.663	5105
830.802	4965
830.941	4824
831.08	4908
831.219	4984
831.357	4961
831.496	5147
831.635	4957
831.774	4866
831.913	4843
832.051	4717
832.19	4759
832.329	4847
832.467	4691
832.606	4645
832.744	4683
832.883	4702
833.022	4744
833.16	4771
833.299	4767
833.437	4797
833.576	4812
833.714	4831
833.852	4854
833.991	4839
834.129	4949
834.267	4961
834.406	4980
834.544	4949
834.682	4987
834.821	4938
834.959	5181
835.097	5003
835.235	5189
835.373	5052
835.511	5022
835.65	5006
835.788	5018
835.926	4870
836.064	4881
836.202	4881
836.34	5162
836.478	5220
836.615	5086
836.753	5193
836.891	5307
837.029	5242
837.167	5166
837.305	5132
837.443	5178
837.58	5102
837.718	5239
837.856	5174
837.993	5151
838.131	5231
838.269	5185
838.406	5117
838.544	5197
838.681	4984
838.819	5025
838.956	4881
839.094	4900
839.231	4942
839.369	5083
839.506	5436
839.643	5265
839.781	5079
839.918	5003
840.055	5060
840.193	5109
840.33	5105
840.467	5124
840.604	5117
840.742	5425
840.879	5064
841.016	5064
841.153	5178
841.29	5368
841.427	5330
841.564	5292
841.701	5368
841.838	5250
841.975	5189
842.112	5242
842.249	5075
842.385	5117
842.522	5372
842.659	5162
842.796	5079
842.933	5208
843.069	5159
843.206	5159
843.343	5311
843.479	5223
843.616	5242
843.752	4980
843.889	4984
844.025	5201
844.162	5033
844.298	5155
844.435	5067
844.571	5025
844.708	5136
844.844	5292
844.98	5280
845.117	5277
845.253	5166
845.389	5105
845.525	5166
845.661	5140
845.798	5033
845.934	5098
846.07	5071
846.206	5151
846.342	5246
846.478	5128
846.614	4999
846.75	4968
846.886	4949
847.022	5102
847.158	4942
847.294	5064
847.429	5083
847.565	5052
847.701	5303
847.837	4908
847.972	4828
848.108	5014
848.244	4953
848.379	4755
848.515	4736
848.65	4656
848.786	4717
848.921	4748
849.057	4858
849.192	4934
849.328	4805
849.463	4843
849.598	4752
849.734	4767
849.869	4634
850.004	4626
850.14	4618
850.275	4603
850.41	4565
850.545	4550
850.68	4596
850.815	4641
850.95	4630
851.085	4831
851.22	4733
851.355	4622
851.49	4622
851.625	4577
851.76	4596
851.895	4573
852.03	4485
852.165	4622
852.299	4725
852.434	4782
852.569	4805
852.703	4786
852.838	4828
852.973	4923
853.107	4908
853.242	4729
853.376	4603
853.511	4550
853.645	4588
853.78	4786
853.914	4698
854.048	4698
854.183	4618
854.317	4721
854.451	4862
854.585	4702
854.72	4603
854.854	4736
854.988	4615
855.122	4664
855.256	4523
855.39	4691
855.524	4702
855.658	4725
855.792	4729
855.926	4714
856.06	4755
856.194	4771
856.327	4687
856.461	4626
856.595	4565
856.729	4622
856.862	4702
856.996	4656
857.13	4740
857.263	4736
857.397	4778
857.53	4592
857.664	4702
857.797	4763
857.931	4763
858.064	4710
858.197	4755
858.331	4607
858.464	4573
858.597	4508
858.731	4603
858.864	4611
858.997	4561
859.13	4710
859.263	4618
859.396	4683
859.529	4622
859.662	4592
859.795	4516
859.928	4618
860.061	4733
860.194	4782
860.327	4618
860.46	4527
860.592	4683
860.725	4733
860.858	4706
860.99	4558
861.123	4512
861.256	4508
861.388	4630
861.521	5170
861.653	4516
861.786	4489
861.918	4451
862.05	4516
862.183	4531
862.315	4558
862.447	4630
862.58	4542
862.712	4409
862.844	4318
862.976	4432
863.108	4440
863.24	4748
863.372	4325
863.504	4398
863.636	4371
863.768	4459
863.9	4394
864.032	4337
864.164	4379
864.296	4481
864.428	4538
864.559	4546
864.691	4470
864.823	4489
864.954	4459
865.086	4546
865.217	4398
865.349	4440
865.48	4489
865.612	4481
865.743	4588
865.875	4489
866.006	4356
866.137	4478
866.269	4459
866.4	4394
866.531	4421
866.662	4409
866.793	4402
866.924	4432
867.055	4455
867.186	4489
867.317	4447
867.448	4383
867.579	4363
867.71	4390
867.841	4367
867.972	4421
868.103	4459
868.233	4424
868.364	4443
868.495	4466
868.625	4641
868.756	4744
868.886	4580
869.017	4645
869.147	4774
869.278	4805
869.408	4668
869.539	4546
869.669	4672
869.799	4626
869.929	4752
870.06	4710
870.19	4942
870.32	4946
870.45	4942
870.58	5014
870.71	5067
870.84	5086
870.97	4927
871.1	4908
871.23	5162
871.36	5128
871.489	5056
871.619	5003
871.749	5124
871.879	5113
872.008	5128
872.138	5045
872.267	4961
872.397	4858
872.526	4816
872.656	4714
872.785	4778
872.915	4957
873.044	5018
873.173	4908
873.303	4987
873.432	4934
873.561	4934
873.69	4858
873.819	4892
873.948	4942
874.077	4816
874.206	4778
874.335	4782
874.464	4866
874.593	5014
874.722	4957
874.851	5090
874.979	5052
875.108	5033
875.237	4904
875.365	4915
875.494	4881
875.623	4972
875.751	4801
875.88	4881
876.008	4949
876.136	5025
876.265	5197
876.393	5322
876.521	5273
876.65	5201
876.778	5162
876.906	5022
877.034	4991
877.162	5041
877.29	4961
877.418	4991
877.546	5064
877.674	5014
877.802	5041
877.93	5048
878.058	4946
878.185	4896
878.313	4938
878.441	4953
878.568	4820
878.696	4908
878.824	4923
878.951	4972
879.079	5155
879.206	5299
879.333	5067
879.461	5010
879.588	4961
879.715	5083
879.842	5193
879.97	5003
880.097	4778
880.224	4706
880.351	4797
880.478	4850
880.605	4809
880.732	4755
880.859	5086
880.986	4900
881.112	4889
881.239	4752
881.366	4618
881.493	4626
881.619	4573
881.746	4599
881.872	4672
881.999	4630
882.125	4702
882.252	4835
882.378	4782
882.505	4923
882.631	4786
882.757	4683
882.883	4725
883.01	4687
883.136	4641
883.262	4660
883.388	4641
883.514	4805
883.64	4850
883.766	4771
883.892	4664
884.018	4748
884.143	4889
884.269	5048
884.395	4637
884.52	4615
884.646	4664
884.772	4565
884.897	4641
885.023	4637
885.148	4763
885.274	4835
885.399	4812
885.524	4691
885.65	4725
885.775	4748
885.9	4687
886.025	4835
886.15	4824
886.275	4721
886.4	4645
886.525	4729
886.65	4679
886.775	4706
886.9	4889
887.025	5033
887.149	4793
887.274	4603
887.399	4558
887.523	4607
887.648	4577
887.773	4626
887.897	4771
888.021	4767
888.146	4702
888.27	4793
888.395	4919
888.519	4824
888.643	4755
888.767	4812
888.891	4668
889.015	4558
889.139	4656
889.263	4577
889.387	4774
889.511	4866
889.635	4805
889.759	4675
889.883	4660
890.006	4721
890.13	4809
890.254	4584
890.377	4675
890.501	4538
890.624	4497
890.748	4664
890.871	4481
890.995	4417
891.118	4394
891.241	4474
891.364	4558
891.488	4607
891.611	4508
891.734	4546
891.857	4607
891.98	4527
892.103	4615
892.226	4542
892.349	4485
892.471	4436
892.594	4527
892.717	4546
892.839	4554
892.962	4561
893.085	4664
893.207	4577
893.33	4455
893.452	4512
893.575	4634
893.697	4607
893.819	4839
893.941	4767
894.064	4740
894.186	4603
894.308	4535
894.43	4717
894.552	4831
894.674	4729
894.796	4546
894.918	4580
895.04	4527
895.161	4717
895.283	4645
895.405	4561
895.526	4618
895.648	4664
895.769	4656
895.891	4714
896.012	4710
896.134	4725
896.255	4664
896.376	4622
896.498	4580
896.619	4603
896.74	4622
896.861	4683
896.982	4892
897.103	5056
897.224	4858
897.345	4748
897.466	4592
897.587	4755
897.708	4828
897.828	4774
897.949	4641
898.07	4527
898.19	4630
898.311	4828
898.431	4656
898.552	4714
898.672	4862
898.792	4755
898.913	4736
899.033	4656
899.153	4519
899.273	4428
899.393	4554
899.513	4489
899.633	4516
899.753	4516
899.873	4504
899.993	4554
900.113	4493
900.232	4580
900.352	4561
900.472	4550
900.591	4379
900.711	4485
900.83	4402
900.95	4618
901.069	4668
901.189	4516
901.308	4379
901.427	4314
901.546	4375
901.665	4455
901.784	4569
901.904	4363
902.023	4291
902.141	4162
902.26	4185
902.379	4322
902.498	4200
902.617	4230
902.735	4413
902.854	4424
902.973	4390
903.091	4215
903.21	4246
903.328	4291
903.446	4276
903.565	4238
903.683	4386
903.801	4287
903.919	4367
904.038	4440
904.156	4272
904.274	4352
904.392	4409
904.51	4405
904.627	4466
904.745	4527
904.863	4618
904.981	4398
905.098	4291
905.216	4383
905.334	4432
905.451	4432
905.569	4474
905.686	4542
905.803	4569
905.921	4459
906.038	4535
906.155	4481
906.272	4417
906.389	4432
906.506	4363
906.623	4405
906.74	4390
906.857	4287
906.974	4344
907.091	4573
907.208	4714
907.324	4580
907.441	4512
907.557	4329
907.674	4405
907.79	4276
907.907	4383
908.023	4466
908.139	4500
908.256	4447
908.372	4462
908.488	4413
908.604	4367
908.72	4363
908.836	4383
908.952	4371
909.068	4443
909.184	4607
909.3	4462
909.415	4577
909.531	4516
909.647	4363
909.762	4344
909.878	4318
909.993	4417
910.108	4371
910.224	4413
910.339	4459
910.454	4413
910.57	4367
910.685	4314
910.8	4630
910.915	4573
911.03	4516
911.145	4356
911.259	4344
911.374	4424
911.489	4265
911.604	4299
911.718	4154
911.833	4173
911.947	4090
912.062	4040
912.176	4143
912.291	4238
912.405	4223
912.519	4398
912.633	4504
912.748	4421
912.862	4272
912.976	4173
913.09	4097
913.204	4154
913.318	4234
913.431	4390
913.545	4344
913.659	4440
913.772	4367
913.886	4230
914	4204
914.113	4363
914.226	4379
914.34	4379
914.453	4253
914.566	4371
914.68	4318
914.793	4337
914.906	4173
915.019	4112
915.132	4109
915.245	4173
915.358	4234
915.47	4257
915.583	4284
915.696	4284
915.809	4398
915.921	4409
916.034	4242
916.146	4196
916.259	4207
916.371	4318
916.483	4337
916.595	4280
916.708	4329
916.82	4310
916.932	4318
917.044	4341
917.156	4287
917.268	4215
917.38	4261
917.491	4318
917.603	4306
917.715	4424
917.826	4440
917.938	4333
918.049	4234
918.161	4390
918.272	4481
918.384	4554
918.495	4405
918.606	4287
918.717	4253
918.828	4356
918.939	4280
919.05	4238
919.161	4318
919.272	4158
919.383	4219
919.494	4462
919.604	4607
919.715	4451
919.826	4367
919.936	4402
920.047	4428
920.157	4519
920.267	4675
920.378	4538
920.488	4523
920.598	4706
920.708	4866
920.818	4744
920.928	4774
921.038	4987
921.148	4862
921.258	4588
921.368	4516
921.477	4489
921.587	4493
921.697	4329
921.806	4538
921.916	4421
922.025	4261
922.134	4261
922.244	4207
922.353	4306
922.462	4177
922.571	4158
922.68	3964
922.789	3956
922.898	3972
923.007	4013
923.116	4101
923.224	4082
923.333	4074
923.442	3941
923.55	3907
923.659	3968
923.767	4131
923.876	4040
923.984	4131
924.092	3953
924.201	4055
924.309	4090
924.417	4093
924.525	4063
924.633	4055
924.741	4930
924.849	3888
924.956	4112
925.064	3922
925.172	3876
925.279	3949
925.387	4025
925.494	4017
925.602	4211
925.709	4185
925.816	4002
925.924	4128
926.031	4204
926.138	4131
926.245	4204
926.352	4048
926.459	4280
926.566	4341
926.673	4192
926.779	4074
926.886	4078
926.993	4021
927.099	3945
927.206	3930
927.312	3991
927.419	4051
927.525	4010
927.631	4090
927.737	3937
927.843	3899
927.95	3846
928.056	3945
928.162	3945
928.267	4093
928.373	4607
928.479	4188
928.585	3850
928.69	4040
928.796	4082
928.901	4006
929.007	3827
929.112	3987
929.218	3975
929.323	3926
929.428	3949
929.533	4082
929.638	3903
929.743	3941
929.848	4006
929.953	3979
930.058	3899
930.163	3789
930.267	3785
930.372	4010
930.477	3789
930.581	4090
930.685	3953
930.79	3827
930.894	3911
930.998	3899
931.103	4029
931.207	3690
931.311	3698
931.415	3660
931.519	3519
931.623	3568
