Data from test_V78500241_2611.txt Node
Date: Fri Mar 25 17:07:09 CST 2022
User: usil
Spectrometer: V785-0024
Trigger mode: 0
Integration Time (sec): 4.000000E-1
Scans to average: 1
Nonlinearity correction enabled: false
Boxcar width: 0
Storing dark spectrum: false
XAxis mode: Wavelengths
Number of Pixels in Spectrum: 1024
>>>>>Begin Spectral Data<<<<<
801.071	8031
801.214	8046
801.356	7875
801.499	7875
801.641	7822
801.783	7898
801.926	7955
802.068	7947
802.211	8008
802.353	8035
802.496	7883
802.638	7951
802.78	7898
802.923	7894
803.065	7909
803.208	7898
803.35	7982
803.492	8123
803.635	8180
803.777	8046
803.919	8145
804.061	8442
804.204	8103
804.346	8092
804.488	7944
804.63	8115
804.773	8073
804.915	8157
805.057	8309
805.199	8149
805.341	8168
805.483	8248
805.626	8317
805.768	8100
805.91	8195
806.052	8157
806.194	8149
806.336	8294
806.478	8084
806.62	7963
806.762	8153
806.904	8195
807.046	8442
807.188	8355
807.33	8275
807.472	8301
807.614	8119
807.756	8142
807.898	8024
808.04	7871
808.182	7860
808.324	7894
808.465	7959
808.607	8020
808.749	8103
808.891	8240
809.033	8320
809.174	8199
809.316	7997
809.458	8046
809.6	7993
809.741	7986
809.883	8016
810.025	8062
810.166	8100
810.308	7989
810.45	7967
810.591	7826
810.733	7715
810.875	7636
811.016	7548
811.158	7460
811.299	7544
811.441	7769
811.582	7666
811.724	7647
811.865	7525
812.007	7575
812.148	7647
812.29	7628
812.431	7746
812.573	7890
812.714	7913
812.855	8126
812.997	8187
813.138	8339
813.279	8210
813.421	7989
813.562	7955
813.703	7887
813.845	7776
813.986	7388
814.127	7312
814.268	7213
814.41	7187
814.551	7232
814.692	7240
814.833	7107
814.974	7088
815.115	7126
815.256	6962
815.397	6973
815.539	6932
815.68	6848
815.821	6798
815.962	6878
816.103	6829
816.244	6722
816.385	6601
816.526	6627
816.666	6525
816.807	6308
816.948	6479
817.089	6422
817.23	6456
817.371	6391
817.512	6388
817.653	6391
817.793	6331
817.934	6422
818.075	6570
818.216	6433
818.356	6388
818.497	6243
818.638	6190
818.778	6136
818.919	6163
819.06	6167
819.2	6346
819.341	6334
819.481	6380
819.622	6502
819.762	6779
819.903	6692
820.043	6662
820.184	6677
820.324	6616
820.465	6715
820.605	6703
820.746	6642
820.886	6578
821.026	6681
821.167	6734
821.307	6810
821.447	6757
821.588	6745
821.728	6639
821.868	6566
822.008	6327
822.149	6410
822.289	6403
822.429	6182
822.569	6117
822.709	6220
822.849	5965
822.99	5904
823.13	5939
823.27	5988
823.41	5897
823.55	5859
823.69	5764
823.83	5764
823.97	5703
824.11	5604
824.25	5551
824.389	5592
824.529	5570
824.669	5592
824.809	5653
824.949	5691
825.089	5672
825.228	5592
825.368	5486
825.508	5383
825.648	5398
825.787	5353
825.927	5452
826.067	5322
826.206	5372
826.346	5387
826.485	5478
826.625	5467
826.765	5490
826.904	5535
827.044	5307
827.183	5250
827.323	5178
827.462	5250
827.601	5250
827.741	5227
827.88	5250
828.02	5185
828.159	5273
828.298	5337
828.437	5376
828.577	5357
828.716	5554
828.855	5383
828.994	5143
829.134	5204
829.273	5246
829.412	5204
829.551	5197
829.69	5185
829.829	5269
829.968	5417
830.107	5307
830.246	5307
830.385	5273
830.524	5204
830.663	5136
830.802	5064
830.941	4923
831.08	4927
831.219	5048
831.357	4972
831.496	5204
831.635	4976
831.774	4885
831.913	4911
832.051	4729
832.19	4824
832.329	4824
832.467	4736
832.606	4653
832.744	4767
832.883	4763
833.022	4793
833.16	4839
833.299	4873
833.437	4877
833.576	4835
833.714	4862
833.852	4927
833.991	4919
834.129	5006
834.267	5037
834.406	4938
834.544	5014
834.682	5033
834.821	5025
834.959	5189
835.097	5010
835.235	5178
835.373	5121
835.511	5113
835.65	5105
835.788	5109
835.926	4923
836.064	4938
836.202	4968
836.34	5181
836.478	5303
836.615	5162
836.753	5269
836.891	5330
837.029	5303
837.167	5204
837.305	5239
837.443	5147
837.58	5083
837.718	5235
837.856	5185
837.993	5242
838.131	5254
838.269	5250
838.406	5227
838.544	5254
838.681	5079
838.819	5075
838.956	4915
839.094	4934
839.231	5033
839.369	5132
839.506	5414
839.643	5303
839.781	5064
839.918	5010
840.055	5151
840.193	5136
840.33	5098
840.467	5223
840.604	5269
840.742	5486
840.879	5102
841.016	5128
841.153	5201
841.29	5376
841.427	5364
841.564	5353
841.701	5391
841.838	5273
841.975	5303
842.112	5292
842.249	5162
842.385	5124
842.522	5326
842.659	5201
842.796	5166
842.933	5250
843.069	5181
843.206	5140
843.343	5337
843.479	5250
843.616	5322
843.752	5041
843.889	5064
844.025	5227
844.162	5090
844.298	5258
844.435	5113
844.571	5090
844.708	5197
844.844	5341
844.98	5360
845.117	5330
845.253	5162
845.389	5117
845.525	5212
845.661	5189
845.798	5086
845.934	5185
846.07	5113
846.206	5258
846.342	5288
846.478	5231
846.614	5052
846.75	5014
846.886	5033
847.022	5174
847.158	5014
847.294	5098
847.429	5124
847.565	5064
847.701	5387
847.837	4892
847.972	4816
848.108	5006
848.244	4946
848.379	4824
848.515	4790
848.65	4755
848.786	4824
848.921	4824
849.057	4889
849.192	4949
849.328	4831
849.463	4919
849.598	4812
849.734	4801
849.869	4740
850.004	4679
850.14	4698
850.275	4630
850.41	4580
850.545	4603
850.68	4584
850.815	4649
850.95	4679
851.085	4892
851.22	4771
851.355	4687
851.49	4622
851.625	4660
851.76	4683
851.895	4622
852.03	4584
852.165	4710
852.299	4721
852.434	4839
852.569	4812
852.703	4771
852.838	4885
852.973	4957
853.107	4965
853.242	4759
853.376	4706
853.511	4592
853.645	4679
853.78	4839
853.914	4706
854.048	4672
854.183	4687
854.317	4687
854.451	4911
854.585	4691
854.72	4637
854.854	4744
854.988	4675
855.122	4645
855.256	4527
855.39	4660
855.524	4797
855.658	4717
855.792	4771
855.926	4793
856.06	4805
856.194	4866
856.327	4721
856.461	4653
856.595	4653
856.729	4664
856.862	4786
856.996	4733
857.13	4721
857.263	4786
857.397	4816
857.53	4664
857.664	4755
857.797	4812
857.931	4816
858.064	4782
858.197	4771
858.331	4660
858.464	4611
858.597	4527
858.731	4694
858.864	4664
858.997	4698
859.13	4721
859.263	4717
859.396	4710
859.529	4615
859.662	4558
859.795	4538
859.928	4664
860.061	4767
860.194	4778
860.327	4653
860.46	4561
860.592	4706
860.725	4710
860.858	4752
860.99	4573
861.123	4558
861.256	4531
861.388	4694
861.521	5410
861.653	4538
861.786	4474
861.918	4516
862.05	4512
862.183	4538
862.315	4599
862.447	4675
862.58	4584
862.712	4428
862.844	4386
862.976	4546
863.108	4478
863.24	4797
863.372	4337
863.504	4451
863.636	4466
863.768	4489
863.9	4417
864.032	4409
864.164	4470
864.296	4497
864.428	4516
864.559	4618
864.691	4531
864.823	4558
864.954	4523
865.086	4535
865.217	4459
865.349	4443
865.48	4508
865.612	4531
865.743	4672
865.875	4531
866.006	4440
866.137	4493
866.269	4459
866.4	4443
866.531	4451
866.662	4455
866.793	4424
866.924	4440
867.055	4527
867.186	4497
867.317	4443
867.448	4390
867.579	4371
867.71	4386
867.841	4371
867.972	4523
868.103	4481
868.233	4523
868.364	4459
868.495	4493
868.625	4687
868.756	4759
868.886	4611
869.017	4653
869.147	4793
869.278	4831
869.408	4721
869.539	4653
869.669	4755
869.799	4736
869.929	4778
870.06	4786
870.19	5025
870.32	4953
870.45	4987
870.58	5018
870.71	5140
870.84	5159
870.97	4946
871.1	4866
871.23	5132
871.36	5174
871.489	5018
871.619	5132
871.749	5136
871.879	5094
872.008	5220
872.138	5094
872.267	4961
872.397	4904
872.526	4812
872.656	4736
872.785	4816
872.915	4976
873.044	5060
873.173	5022
873.303	5037
873.432	4991
873.561	4984
873.69	4858
873.819	4908
873.948	4938
874.077	4820
874.206	4786
874.335	4839
874.464	4961
874.593	5098
874.722	4987
874.851	5109
874.979	5071
875.108	5098
875.237	4946
875.365	4923
875.494	4972
875.623	4991
875.751	4824
875.88	4900
876.008	5022
876.136	4995
876.265	5258
876.393	5341
876.521	5277
876.65	5292
876.778	5212
876.906	5079
877.034	5079
877.162	5064
877.29	5041
877.418	5079
877.546	5064
877.674	5113
877.802	5041
877.93	5052
878.058	4908
878.185	4900
878.313	4972
878.441	4934
878.568	4831
878.696	4889
878.824	4995
878.951	5048
879.079	5216
879.206	5353
879.333	5159
879.461	5037
879.588	5056
879.715	5143
879.842	5258
879.97	5041
880.097	4767
880.224	4698
880.351	4771
880.478	4854
880.605	4805
880.732	4824
880.859	5098
880.986	4919
881.112	4938
881.239	4790
881.366	4698
881.493	4592
881.619	4618
881.746	4656
881.872	4687
881.999	4664
882.125	4729
882.252	4774
882.378	4850
882.505	4900
882.631	4816
882.757	4660
882.883	4774
883.01	4740
883.136	4645
883.262	4603
883.388	4656
883.514	4824
883.64	4866
883.766	4854
883.892	4710
884.018	4752
884.143	4885
884.269	4987
884.395	4725
884.52	4626
884.646	4649
884.772	4603
884.897	4588
885.023	4706
885.148	4824
885.274	4858
885.399	4828
885.524	4752
885.65	4702
885.775	4771
885.9	4755
886.025	4873
886.15	4793
886.275	4748
886.4	4664
886.525	4752
886.65	4679
886.775	4721
886.9	4919
887.025	5109
887.149	4816
887.274	4714
887.399	4592
887.523	4607
887.648	4573
887.773	4596
887.897	4767
888.021	4748
888.146	4660
888.27	4816
888.395	4908
888.519	4805
888.643	4790
888.767	4828
888.891	4683
889.015	4577
889.139	4710
889.263	4615
889.387	4782
889.511	4881
889.635	4850
889.759	4649
889.883	4637
890.006	4752
890.13	4816
890.254	4645
890.377	4710
890.501	4577
890.624	4580
890.748	4694
890.871	4485
890.995	4394
891.118	4417
891.241	4558
891.364	4588
891.488	4683
891.611	4512
891.734	4561
891.857	4626
891.98	4531
892.103	4694
892.226	4588
892.349	4542
892.471	4455
892.594	4558
892.717	4599
892.839	4550
892.962	4580
893.085	4675
893.207	4615
893.33	4500
893.452	4542
893.575	4660
893.697	4580
893.819	4805
893.941	4843
894.064	4809
894.186	4561
894.308	4565
894.43	4767
894.552	4812
894.674	4771
894.796	4577
894.918	4596
895.04	4558
895.161	4717
895.283	4733
895.405	4588
895.526	4634
895.648	4687
895.769	4702
895.891	4710
896.012	4706
896.134	4717
896.255	4653
896.376	4626
896.498	4592
896.619	4694
896.74	4611
896.861	4634
896.982	4938
897.103	5075
897.224	4854
897.345	4786
897.466	4660
897.587	4763
897.708	4828
897.828	4793
897.949	4672
898.07	4569
898.19	4618
898.311	4850
898.431	4740
898.552	4736
898.672	4778
898.792	4797
898.913	4691
899.033	4660
899.153	4504
899.273	4459
899.393	4523
899.513	4493
899.633	4508
899.753	4531
899.873	4504
899.993	4577
900.113	4531
900.232	4588
900.352	4558
900.472	4516
900.591	4405
900.711	4527
900.83	4451
900.95	4634
901.069	4721
901.189	4535
901.308	4394
901.427	4310
901.546	4405
901.665	4531
901.784	4538
901.904	4352
902.023	4329
902.141	4219
902.26	4177
902.379	4310
902.498	4261
902.617	4230
902.735	4379
902.854	4394
902.973	4360
903.091	4200
903.21	4204
903.328	4303
903.446	4291
903.565	4272
903.683	4383
903.801	4249
903.919	4428
904.038	4493
904.156	4379
904.274	4417
904.392	4398
904.51	4447
904.627	4481
904.745	4592
904.863	4649
904.981	4383
905.098	4295
905.216	4394
905.334	4455
905.451	4466
905.569	4402
905.686	4554
905.803	4592
905.921	4428
906.038	4584
906.155	4489
906.272	4428
906.389	4466
906.506	4379
906.623	4402
906.74	4379
906.857	4280
906.974	4398
907.091	4538
907.208	4660
907.324	4607
907.441	4516
907.557	4329
907.674	4367
907.79	4352
907.907	4386
908.023	4470
908.139	4459
908.256	4421
908.372	4497
908.488	4466
908.604	4371
908.72	4379
908.836	4371
908.952	4394
909.068	4451
909.184	4554
909.3	4455
909.415	4558
909.531	4554
909.647	4367
909.762	4360
909.878	4341
909.993	4424
910.108	4375
910.224	4455
910.339	4474
910.454	4421
910.57	4375
910.685	4310
910.8	4679
910.915	4584
911.03	4470
911.145	4295
911.259	4367
911.374	4398
911.489	4299
911.604	4249
911.718	4200
911.833	4185
911.947	4109
912.062	4002
912.176	4181
912.291	4219
912.405	4265
912.519	4497
912.633	4478
912.748	4325
912.862	4322
912.976	4207
913.09	4143
913.204	4177
913.318	4261
913.431	4352
913.545	4341
913.659	4421
913.772	4322
913.886	4261
914	4249
914.113	4360
914.226	4432
914.34	4383
914.453	4246
914.566	4405
914.68	4272
914.793	4291
914.906	4150
915.019	4120
915.132	4071
915.245	4181
915.358	4196
915.47	4227
915.583	4284
915.696	4284
915.809	4421
915.921	4413
916.034	4284
916.146	4261
916.259	4230
916.371	4386
916.483	4344
916.595	4261
916.708	4318
916.82	4299
916.932	4333
917.044	4291
917.156	4341
917.268	4246
917.38	4291
917.491	4291
917.603	4344
917.715	4413
917.826	4459
917.938	4367
918.049	4238
918.161	4402
918.272	4561
918.384	4569
918.495	4470
918.606	4276
918.717	4223
918.828	4306
918.939	4409
919.05	4253
919.161	4352
919.272	4082
919.383	4227
919.494	4497
919.604	4611
919.715	4424
919.826	4360
919.936	4424
920.047	4584
920.157	4531
920.267	4691
920.378	4542
920.488	4478
920.598	4759
920.708	4919
920.818	4774
920.928	4755
921.038	4934
921.148	4904
921.258	4599
921.368	4516
921.477	4512
921.587	4485
921.697	4390
921.806	4542
921.916	4421
922.025	4272
922.134	4291
922.244	4200
922.353	4310
922.462	4158
922.571	4109
922.68	3998
922.789	3922
922.898	4025
923.007	3983
923.116	4131
923.224	4082
923.333	4063
923.442	3956
923.55	3964
923.659	3983
923.767	4071
923.876	3983
923.984	4097
924.092	4029
924.201	4044
924.309	4128
924.417	4169
924.525	4059
924.633	4116
924.741	5064
924.849	3911
924.956	4120
925.064	3960
925.172	3907
925.279	3994
925.387	4032
925.494	4074
925.602	4219
925.709	4177
925.816	4071
925.924	4112
926.031	4249
926.138	4124
926.245	4230
926.352	4109
926.459	4287
926.566	4352
926.673	4162
926.779	4093
926.886	4059
926.993	3975
927.099	3987
927.206	3945
927.312	3960
927.419	4105
927.525	4036
927.631	4078
927.737	3991
927.843	3960
927.95	3812
928.056	3953
928.162	3949
928.267	4048
928.373	4615
928.479	4086
928.585	3873
928.69	4059
928.796	4071
928.901	3937
929.007	3884
929.112	3953
929.218	4021
929.323	3915
929.428	3926
929.533	4097
929.638	3903
929.743	3926
929.848	4082
929.953	3994
930.058	3915
930.163	3793
930.267	3850
930.372	3968
930.477	3808
930.581	4093
930.685	3930
930.79	3842
930.894	3880
930.998	3793
931.103	4109
931.207	3728
931.311	3679
931.415	3724
931.519	3450
931.623	3530
