Data from test_V78500241_436.txt Node
Date: Fri Mar 25 16:52:02 CST 2022
User: usil
Spectrometer: V785-0024
Trigger mode: 0
Integration Time (sec): 4.000000E-1
Scans to average: 1
Nonlinearity correction enabled: false
Boxcar width: 0
Storing dark spectrum: false
XAxis mode: Wavelengths
Number of Pixels in Spectrum: 1024
>>>>>Begin Spectral Data<<<<<
801.071	8100
801.214	8046
801.356	8016
801.499	7856
801.641	7833
801.783	7875
801.926	8039
802.068	7989
802.211	7967
802.353	8069
802.496	7925
802.638	7864
802.78	7936
802.923	7959
803.065	7940
803.208	7875
803.35	7936
803.492	8073
803.635	8134
803.777	8031
803.919	8073
804.061	8431
804.204	8096
804.346	8008
804.488	7921
804.63	8005
804.773	8005
804.915	8077
805.057	8366
805.199	8225
805.341	8244
805.483	8248
805.626	8225
805.768	8062
805.91	8119
806.052	8195
806.194	8134
806.336	8279
806.478	8199
806.62	8142
806.762	8103
806.904	8240
807.046	8434
807.188	8374
807.33	8279
807.472	8347
807.614	8145
807.756	8142
807.898	7978
808.04	7932
808.182	7993
808.324	7997
808.465	7959
808.607	8084
808.749	8073
808.891	8214
809.033	8328
809.174	8168
809.316	8092
809.458	8062
809.6	7967
809.741	8020
809.883	8012
810.025	8142
810.166	8119
810.308	8035
810.45	8077
810.591	7955
810.733	7670
810.875	7715
811.016	7559
811.158	7491
811.299	7639
811.441	7738
811.582	7765
811.724	7685
811.865	7559
812.007	7693
812.148	7632
812.29	7674
812.431	7799
812.573	7925
812.714	8039
812.855	8168
812.997	8275
813.138	8419
813.279	8202
813.421	8195
813.562	8126
813.703	8001
813.845	7712
813.986	7495
814.127	7350
814.268	7305
814.41	7259
814.551	7213
814.692	7247
814.833	7141
814.974	7129
815.115	7103
815.256	7004
815.397	6970
815.539	6989
815.68	6821
815.821	6776
815.962	6856
816.103	6867
816.244	6738
816.385	6631
816.526	6646
816.666	6479
816.807	6319
816.948	6544
817.089	6467
817.23	6422
817.371	6391
817.512	6433
817.653	6391
817.793	6407
817.934	6414
818.075	6460
818.216	6418
818.356	6456
818.497	6266
818.638	6182
818.778	6171
818.919	6224
819.06	6175
819.2	6281
819.341	6273
819.481	6319
819.622	6490
819.762	6722
819.903	6745
820.043	6601
820.184	6620
820.324	6589
820.465	6673
820.605	6692
820.746	6623
820.886	6540
821.026	6673
821.167	6745
821.307	6798
821.447	6776
821.588	6688
821.728	6570
821.868	6517
822.008	6327
822.149	6380
822.289	6399
822.429	6148
822.569	6117
822.709	6098
822.849	5939
822.99	5923
823.13	5920
823.27	5999
823.41	5794
823.55	5832
823.69	5828
823.83	5775
823.97	5722
824.11	5581
824.25	5512
824.389	5547
824.529	5623
824.669	5581
824.809	5581
824.949	5680
825.089	5623
825.228	5592
825.368	5395
825.508	5379
825.648	5318
825.787	5395
825.927	5398
826.067	5330
826.206	5296
826.346	5395
826.485	5440
826.625	5387
826.765	5543
826.904	5482
827.044	5273
827.183	5223
827.323	5136
827.462	5204
827.601	5098
827.741	5189
827.88	5269
828.02	5083
828.159	5220
828.298	5322
828.437	5372
828.577	5258
828.716	5471
828.855	5292
828.994	5178
829.134	5170
829.273	5170
829.412	5216
829.551	5136
829.69	5136
829.829	5307
829.968	5391
830.107	5220
830.246	5258
830.385	5197
830.524	5159
830.663	5025
830.802	5003
830.941	4915
831.08	4949
831.219	4999
831.357	4965
831.496	5216
831.635	4961
831.774	4870
831.913	4858
832.051	4744
832.19	4748
832.329	4850
832.467	4736
832.606	4710
832.744	4774
832.883	4790
833.022	4706
833.16	4759
833.299	4828
833.437	4812
833.576	4866
833.714	4885
833.852	4877
833.991	4862
834.129	4995
834.267	5033
834.406	4976
834.544	5010
834.682	4946
834.821	4953
834.959	5181
835.097	5022
835.235	5136
835.373	5060
835.511	5071
835.65	5014
835.788	5060
835.926	4915
836.064	4858
836.202	4911
836.34	5212
836.478	5178
836.615	5162
836.753	5185
836.891	5345
837.029	5261
837.167	5162
837.305	5181
837.443	5143
837.58	5071
837.718	5250
837.856	5147
837.993	5197
838.131	5258
838.269	5204
838.406	5220
838.544	5159
838.681	5033
838.819	5037
838.956	4835
839.094	4942
839.231	5018
839.369	5052
839.506	5444
839.643	5307
839.781	5075
839.918	5010
840.055	5113
840.193	5105
840.33	5136
840.467	5109
840.604	5216
840.742	5478
840.879	5128
841.016	5064
841.153	5178
841.29	5406
841.427	5334
841.564	5337
841.701	5315
841.838	5288
841.975	5208
842.112	5242
842.249	5143
842.385	5155
842.522	5311
842.659	5216
842.796	5162
842.933	5212
843.069	5159
843.206	5162
843.343	5315
843.479	5299
843.616	5277
843.752	4999
843.889	5018
844.025	5181
844.162	4999
844.298	5223
844.435	5174
844.571	5045
844.708	5193
844.844	5299
844.98	5341
845.117	5284
845.253	5105
845.389	5060
845.525	5189
845.661	5147
845.798	5018
845.934	5136
846.07	5052
846.206	5178
846.342	5292
846.478	5185
846.614	5025
846.75	4946
846.886	4957
847.022	5159
847.158	4999
847.294	5064
847.429	5098
847.565	5121
847.701	5292
847.837	4923
847.972	4831
848.108	4961
848.244	4949
848.379	4778
848.515	4740
848.65	4710
848.786	4759
848.921	4793
849.057	4854
849.192	4927
849.328	4866
849.463	4835
849.598	4778
849.734	4763
849.869	4721
850.004	4649
850.14	4622
850.275	4558
850.41	4508
850.545	4580
850.68	4615
850.815	4588
850.95	4626
851.085	4870
851.22	4710
851.355	4683
851.49	4653
851.625	4672
851.76	4660
851.895	4542
852.03	4493
852.165	4634
852.299	4706
852.434	4805
852.569	4759
852.703	4801
852.838	4828
852.973	4957
853.107	4862
853.242	4755
853.376	4664
853.511	4569
853.645	4588
853.78	4793
853.914	4702
854.048	4630
854.183	4694
854.317	4687
854.451	4858
854.585	4683
854.72	4622
854.854	4744
854.988	4603
855.122	4649
855.256	4523
855.39	4752
855.524	4771
855.658	4748
855.792	4721
855.926	4748
856.06	4740
856.194	4862
856.327	4664
856.461	4592
856.595	4607
856.729	4611
856.862	4786
856.996	4691
857.13	4729
857.263	4778
857.397	4767
857.53	4660
857.664	4691
857.797	4771
857.931	4790
858.064	4710
858.197	4755
858.331	4687
858.464	4649
858.597	4542
858.731	4634
858.864	4672
858.997	4603
859.13	4668
859.263	4675
859.396	4668
859.529	4637
859.662	4558
859.795	4580
859.928	4630
860.061	4748
860.194	4812
860.327	4615
860.46	4611
860.592	4721
860.725	4672
860.858	4725
860.99	4584
861.123	4558
861.256	4504
861.388	4649
861.521	5425
861.653	4462
861.786	4428
861.918	4455
862.05	4512
862.183	4523
862.315	4573
862.447	4637
862.58	4550
862.712	4386
862.844	4318
862.976	4462
863.108	4493
863.24	4793
863.372	4314
863.504	4390
863.636	4409
863.768	4459
863.9	4466
864.032	4383
864.164	4417
864.296	4516
864.428	4538
864.559	4558
864.691	4531
864.823	4558
864.954	4459
865.086	4558
865.217	4470
865.349	4417
865.48	4462
865.612	4554
865.743	4653
865.875	4462
866.006	4421
866.137	4500
866.269	4440
866.4	4440
866.531	4413
866.662	4386
866.793	4409
866.924	4421
867.055	4516
867.186	4508
867.317	4398
867.448	4417
867.579	4375
867.71	4375
867.841	4390
867.972	4508
868.103	4459
868.233	4451
868.364	4470
868.495	4474
868.625	4687
868.756	4778
868.886	4531
869.017	4603
869.147	4843
869.278	4755
869.408	4668
869.539	4618
869.669	4748
869.799	4691
869.929	4778
870.06	4782
870.19	4991
870.32	4923
870.45	4953
870.58	5003
870.71	5109
870.84	5162
870.97	4961
871.1	4911
871.23	5109
871.36	5121
871.489	5006
871.619	5086
871.749	5136
871.879	5151
872.008	5223
872.138	5052
872.267	4991
872.397	4809
872.526	4759
872.656	4771
872.785	4801
872.915	4965
873.044	5010
873.173	4961
873.303	4953
873.432	4953
873.561	4957
873.69	4866
873.819	4843
873.948	4923
874.077	4828
874.206	4778
874.335	4847
874.464	4919
874.593	5048
874.722	4972
874.851	5109
874.979	5079
875.108	5006
875.237	4949
875.365	4930
875.494	4908
875.623	4980
875.751	4820
875.88	4847
876.008	4900
876.136	5105
876.265	5223
876.393	5296
876.521	5239
876.65	5220
876.778	5170
876.906	5086
877.034	5029
877.162	5041
877.29	5029
877.418	5102
877.546	5014
877.674	5041
877.802	5045
877.93	5033
878.058	4957
878.185	4889
878.313	4976
878.441	4995
878.568	4790
878.696	4892
878.824	4957
878.951	4991
879.079	5155
879.206	5250
879.333	5086
879.461	4991
879.588	5067
879.715	5064
879.842	5220
879.97	5037
880.097	4786
880.224	4748
880.351	4854
880.478	4805
880.605	4801
880.732	4812
880.859	5113
880.986	4896
881.112	4904
881.239	4778
881.366	4664
881.493	4535
881.619	4607
881.746	4679
881.872	4634
881.999	4660
882.125	4725
882.252	4736
882.378	4797
882.505	4968
882.631	4740
882.757	4714
882.883	4755
883.01	4759
883.136	4702
883.262	4596
883.388	4698
883.514	4854
883.64	4839
883.766	4782
883.892	4714
884.018	4714
884.143	4816
884.269	5014
884.395	4679
884.52	4637
884.646	4675
884.772	4611
884.897	4592
885.023	4615
885.148	4839
885.274	4854
885.399	4828
885.524	4683
885.65	4687
885.775	4748
885.9	4714
886.025	4881
886.15	4793
886.275	4748
886.4	4660
886.525	4736
886.65	4729
886.775	4721
886.9	4904
887.025	4995
887.149	4812
887.274	4679
887.399	4577
887.523	4622
887.648	4577
887.773	4580
887.897	4733
888.021	4740
888.146	4702
888.27	4862
888.395	4900
888.519	4843
888.643	4786
888.767	4847
888.891	4683
889.015	4641
889.139	4656
889.263	4630
889.387	4816
889.511	4911
889.635	4805
889.759	4653
889.883	4694
890.006	4729
890.13	4847
890.254	4691
890.377	4672
890.501	4573
890.624	4523
890.748	4656
890.871	4516
890.995	4390
891.118	4383
891.241	4538
891.364	4584
891.488	4596
891.611	4497
891.734	4535
891.857	4603
891.98	4584
892.103	4622
892.226	4592
892.349	4516
892.471	4459
892.594	4558
892.717	4550
892.839	4603
892.962	4558
893.085	4668
893.207	4622
893.33	4470
893.452	4550
893.575	4656
893.697	4611
893.819	4805
893.941	4812
894.064	4778
894.186	4588
894.308	4561
894.43	4733
894.552	4812
894.674	4778
894.796	4577
894.918	4611
895.04	4584
895.161	4706
895.283	4694
895.405	4554
895.526	4592
895.648	4706
895.769	4691
895.891	4706
896.012	4744
896.134	4687
896.255	4694
896.376	4618
896.498	4656
896.619	4660
896.74	4588
896.861	4653
896.982	4892
897.103	5075
897.224	4850
897.345	4763
897.466	4630
897.587	4771
897.708	4873
897.828	4793
897.949	4698
898.07	4531
898.19	4649
898.311	4812
898.431	4675
898.552	4645
898.672	4790
898.792	4801
898.913	4752
899.033	4626
899.153	4497
899.273	4394
899.393	4523
899.513	4516
899.633	4538
899.753	4519
899.873	4546
899.993	4550
900.113	4519
900.232	4618
900.352	4535
900.472	4500
900.591	4383
900.711	4470
900.83	4470
900.95	4615
901.069	4672
901.189	4531
901.308	4390
901.427	4322
901.546	4398
901.665	4516
901.784	4516
901.904	4379
902.023	4322
902.141	4265
902.26	4154
902.379	4344
902.498	4230
902.617	4200
902.735	4379
902.854	4398
902.973	4356
903.091	4223
903.21	4234
903.328	4306
903.446	4265
903.565	4272
903.683	4367
903.801	4276
903.919	4409
904.038	4413
904.156	4348
904.274	4424
904.392	4398
904.51	4424
904.627	4470
904.745	4584
904.863	4698
904.981	4432
905.098	4295
905.216	4371
905.334	4428
905.451	4413
905.569	4466
905.686	4573
905.803	4573
905.921	4413
906.038	4554
906.155	4447
906.272	4402
906.389	4481
906.506	4375
906.623	4398
906.74	4360
906.857	4310
906.974	4428
907.091	4554
907.208	4653
907.324	4565
907.441	4474
907.557	4329
907.674	4352
907.79	4333
907.907	4390
908.023	4455
908.139	4428
908.256	4409
908.372	4436
908.488	4432
908.604	4371
908.72	4333
908.836	4367
908.952	4413
909.068	4443
909.184	4607
909.3	4470
909.415	4573
909.531	4554
909.647	4322
909.762	4386
909.878	4333
909.993	4428
910.108	4402
910.224	4386
910.339	4470
910.454	4402
910.57	4379
910.685	4318
910.8	4618
910.915	4641
911.03	4512
911.145	4348
911.259	4360
911.374	4409
911.489	4284
911.604	4280
911.718	4181
911.833	4223
911.947	4147
912.062	4025
912.176	4238
912.291	4238
912.405	4253
912.519	4470
912.633	4485
912.748	4363
912.862	4287
912.976	4188
913.09	4086
913.204	4173
913.318	4238
913.431	4348
913.545	4371
913.659	4436
913.772	4367
913.886	4249
914	4257
914.113	4360
914.226	4447
914.34	4371
914.453	4272
914.566	4421
914.68	4265
914.793	4303
914.906	4158
915.019	4135
915.132	4116
915.245	4154
915.358	4177
915.47	4230
915.583	4284
915.696	4310
915.809	4447
915.921	4447
916.034	4257
916.146	4268
916.259	4207
916.371	4363
916.483	4360
916.595	4276
916.708	4322
916.82	4344
916.932	4341
917.044	4360
917.156	4352
917.268	4223
917.38	4265
917.491	4276
917.603	4314
917.715	4462
917.826	4436
917.938	4367
918.049	4265
918.161	4394
918.272	4527
918.384	4546
918.495	4474
918.606	4337
918.717	4257
918.828	4310
918.939	4379
919.05	4284
919.161	4333
919.272	4093
919.383	4249
919.494	4443
919.604	4611
919.715	4459
919.826	4356
919.936	4459
920.047	4508
920.157	4470
920.267	4698
920.378	4596
920.488	4462
920.598	4706
920.708	4892
920.818	4805
920.928	4736
921.038	4972
921.148	4877
921.258	4668
921.368	4573
921.477	4516
921.587	4466
921.697	4371
921.806	4519
921.916	4413
922.025	4268
922.134	4234
922.244	4223
922.353	4291
922.462	4238
922.571	4169
922.68	4013
922.789	4021
922.898	4044
923.007	3998
923.116	4131
923.224	4090
923.333	4128
923.442	4006
923.55	3956
923.659	4029
923.767	4097
923.876	4040
923.984	4112
924.092	3983
924.201	4112
924.309	4059
924.417	4124
924.525	4040
924.633	4044
924.741	5056
924.849	3892
924.956	4131
925.064	3998
925.172	3911
925.279	3975
925.387	4078
925.494	4025
925.602	4227
925.709	4169
925.816	4021
925.924	4124
926.031	4196
926.138	4147
926.245	4192
926.352	4105
926.459	4265
926.566	4303
926.673	4120
926.779	4093
926.886	4082
926.993	3953
927.099	3987
927.206	3922
927.312	3937
927.419	4059
927.525	4036
927.631	4097
927.737	3934
927.843	3941
927.95	3865
928.056	3949
928.162	3998
928.267	4074
928.373	4672
928.479	4105
928.585	3854
928.69	4010
928.796	4086
928.901	3994
929.007	3831
929.112	4032
929.218	3941
929.323	3941
929.428	3945
929.533	4116
929.638	3903
929.743	3937
929.848	4055
929.953	3975
930.058	3945
930.163	3808
930.267	3842
930.372	3991
930.477	3808
930.581	4120
930.685	3945
930.79	3850
930.894	3884
930.998	3846
931.103	4025
931.207	3728
931.311	3743
931.415	3663
931.519	3526
931.623	3542
