Data from test_V78500241_1907.txt Node
Date: Fri Mar 25 17:02:15 CST 2022
User: usil
Spectrometer: V785-0024
Trigger mode: 0
Integration Time (sec): 4.000000E-1
Scans to average: 1
Nonlinearity correction enabled: false
Boxcar width: 0
Storing dark spectrum: false
XAxis mode: Wavelengths
Number of Pixels in Spectrum: 1024
>>>>>Begin Spectral Data<<<<<
801.071	8024
801.214	8065
801.356	7849
801.499	7814
801.641	7826
801.783	7811
801.926	8001
802.068	7986
802.211	8005
802.353	7936
802.496	7807
802.638	7871
802.78	7849
802.923	7928
803.065	7879
803.208	7852
803.35	8031
803.492	8107
803.635	8138
803.777	7963
803.919	8130
804.061	8488
804.204	8164
804.346	8073
804.488	8024
804.63	8092
804.773	8077
804.915	8084
805.057	8320
805.199	8202
805.341	8275
805.483	8290
805.626	8149
805.768	8176
805.91	8187
806.052	8195
806.194	8168
806.336	8309
806.478	8149
806.62	8046
806.762	8164
806.904	8309
807.046	8560
807.188	8343
807.33	8358
807.472	8351
807.614	8176
807.756	8172
807.898	8001
808.04	7989
808.182	7883
808.324	7909
808.465	7871
808.607	8096
808.749	8016
808.891	8237
809.033	8290
809.174	8221
809.316	8081
809.458	8043
809.6	8008
809.741	8107
809.883	8081
810.025	8100
810.166	8077
810.308	8065
810.45	7936
810.591	7799
810.733	7753
810.875	7662
811.016	7521
811.158	7533
811.299	7567
811.441	7731
811.582	7632
811.724	7601
811.865	7651
812.007	7510
812.148	7559
812.29	7647
812.431	7761
812.573	7959
812.714	8035
812.855	8142
812.997	8202
813.138	8332
813.279	8240
813.421	8111
813.562	7951
813.703	7780
813.845	7769
813.986	7426
814.127	7251
814.268	7221
814.41	7202
814.551	7209
814.692	7285
814.833	7095
814.974	7122
815.115	7118
815.256	6977
815.397	6939
815.539	6943
815.68	6768
815.821	6798
815.962	6890
816.103	6810
816.244	6726
816.385	6597
816.526	6627
816.666	6509
816.807	6353
816.948	6464
817.089	6494
817.23	6414
817.371	6426
817.512	6399
817.653	6426
817.793	6391
817.934	6418
818.075	6448
818.216	6426
818.356	6426
818.497	6308
818.638	6140
818.778	6152
818.919	6148
819.06	6182
819.2	6350
819.341	6346
819.481	6437
819.622	6566
819.762	6768
819.903	6688
820.043	6578
820.184	6563
820.324	6555
820.465	6738
820.605	6696
820.746	6684
820.886	6502
821.026	6665
821.167	6677
821.307	6806
821.447	6779
821.588	6604
821.728	6616
821.868	6498
822.008	6338
822.149	6338
822.289	6407
822.429	6136
822.569	6117
822.709	6117
822.849	5920
822.99	5916
823.13	5885
823.27	5965
823.41	5813
823.55	5764
823.69	5771
823.83	5783
823.97	5619
824.11	5570
824.25	5471
824.389	5585
824.529	5634
824.669	5493
824.809	5596
824.949	5688
825.089	5630
825.228	5566
825.368	5398
825.508	5383
825.648	5368
825.787	5395
825.927	5417
826.067	5299
826.206	5311
826.346	5376
826.485	5455
826.625	5444
826.765	5547
826.904	5505
827.044	5284
827.183	5185
827.323	5132
827.462	5277
827.601	5197
827.741	5250
827.88	5288
828.02	5098
828.159	5239
828.298	5326
828.437	5368
828.577	5326
828.716	5524
828.855	5311
828.994	5170
829.134	5143
829.273	5235
829.412	5113
829.551	5132
829.69	5185
829.829	5250
829.968	5334
830.107	5288
830.246	5269
830.385	5170
830.524	5132
830.663	5052
830.802	4976
830.941	4877
831.08	4881
831.219	5014
831.357	4934
831.496	5147
831.635	4930
831.774	4850
831.913	4870
832.051	4706
832.19	4710
832.329	4866
832.467	4714
832.606	4626
832.744	4740
832.883	4691
833.022	4733
833.16	4801
833.299	4793
833.437	4816
833.576	4858
833.714	4866
833.852	4896
833.991	4946
834.129	4949
834.267	5018
834.406	4946
834.544	4953
834.682	4987
834.821	4949
834.959	5140
835.097	5018
835.235	5147
835.373	5113
835.511	5090
835.65	5079
835.788	5045
835.926	4930
836.064	4877
836.202	4881
836.34	5128
836.478	5216
836.615	5105
836.753	5208
836.891	5322
837.029	5265
837.167	5204
837.305	5151
837.443	5170
837.58	5128
837.718	5235
837.856	5181
837.993	5189
838.131	5193
838.269	5223
838.406	5258
838.544	5193
838.681	5037
838.819	5025
838.956	4892
839.094	4930
839.231	5010
839.369	5048
839.506	5444
839.643	5288
839.781	5098
839.918	5022
840.055	5071
840.193	5083
840.33	5147
840.467	5147
840.604	5132
840.742	5474
840.879	4995
841.016	5075
841.153	5166
841.29	5376
841.427	5307
841.564	5326
841.701	5334
841.838	5303
841.975	5261
842.112	5269
842.249	5132
842.385	5121
842.522	5315
842.659	5185
842.796	5166
842.933	5159
843.069	5189
843.206	5197
843.343	5311
843.479	5166
843.616	5326
843.752	5025
843.889	5010
844.025	5254
844.162	5052
844.298	5227
844.435	5060
844.571	5067
844.708	5174
844.844	5357
844.98	5303
845.117	5288
845.253	5132
845.389	5060
845.525	5201
845.661	5128
845.798	5022
845.934	5132
846.07	5037
846.206	5197
846.342	5284
846.478	5208
846.614	5006
846.75	4965
846.886	4949
847.022	5136
847.158	4984
847.294	5071
847.429	5094
847.565	5006
847.701	5360
847.837	4896
847.972	4759
848.108	4957
848.244	4957
848.379	4797
848.515	4717
848.65	4714
848.786	4740
848.921	4774
849.057	4839
849.192	4908
849.328	4828
849.463	4854
849.598	4831
849.734	4744
849.869	4664
850.004	4653
850.14	4672
850.275	4596
850.41	4504
850.545	4535
850.68	4611
850.815	4599
850.95	4626
851.085	4843
851.22	4740
851.355	4698
851.49	4618
851.625	4634
851.76	4675
851.895	4626
852.03	4596
852.165	4630
852.299	4744
852.434	4812
852.569	4714
852.703	4767
852.838	4828
852.973	4927
853.107	4930
853.242	4752
853.376	4656
853.511	4561
853.645	4611
853.78	4850
853.914	4721
854.048	4698
854.183	4626
854.317	4702
854.451	4831
854.585	4672
854.72	4611
854.854	4801
854.988	4580
855.122	4653
855.256	4470
855.39	4622
855.524	4767
855.658	4698
855.792	4740
855.926	4752
856.06	4710
856.194	4767
856.327	4691
856.461	4588
856.595	4588
856.729	4580
856.862	4755
856.996	4653
857.13	4694
857.263	4752
857.397	4820
857.53	4607
857.664	4729
857.797	4748
857.931	4816
858.064	4725
858.197	4698
858.331	4637
858.464	4618
858.597	4516
858.731	4618
858.864	4668
858.997	4580
859.13	4618
859.263	4649
859.396	4714
859.529	4573
859.662	4573
859.795	4535
859.928	4607
860.061	4744
860.194	4744
860.327	4584
860.46	4641
860.592	4721
860.725	4710
860.858	4733
860.99	4588
861.123	4523
861.256	4538
861.388	4569
861.521	5288
861.653	4478
861.786	4462
861.918	4512
862.05	4497
862.183	4569
862.315	4596
862.447	4641
862.58	4577
862.712	4417
862.844	4356
862.976	4489
863.108	4489
863.24	4752
863.372	4314
863.504	4447
863.636	4386
863.768	4519
863.9	4462
864.032	4333
864.164	4470
864.296	4436
864.428	4500
864.559	4584
864.691	4531
864.823	4542
864.954	4478
865.086	4508
865.217	4459
865.349	4421
865.48	4424
865.612	4504
865.743	4596
865.875	4436
866.006	4466
866.137	4466
866.269	4394
866.4	4421
866.531	4443
866.662	4352
866.793	4413
866.924	4413
867.055	4504
867.186	4432
867.317	4371
867.448	4348
867.579	4367
867.71	4409
867.841	4375
867.972	4447
868.103	4470
868.233	4459
868.364	4459
868.495	4493
868.625	4675
868.756	4714
868.886	4535
869.017	4630
869.147	4710
869.278	4771
869.408	4683
869.539	4592
869.669	4706
869.799	4588
869.929	4797
870.06	4725
870.19	4980
870.32	4889
870.45	4927
870.58	5010
870.71	5117
870.84	5094
870.97	4976
871.1	4873
871.23	5136
871.36	5109
871.489	4987
871.619	5086
871.749	5102
871.879	5109
872.008	5147
872.138	5090
872.267	4949
872.397	4831
872.526	4812
872.656	4763
872.785	4786
872.915	4949
873.044	4995
873.173	4923
873.303	4946
873.432	4972
873.561	4934
873.69	4881
873.819	4908
873.948	4938
874.077	4870
874.206	4725
874.335	4771
874.464	4885
874.593	5048
874.722	4965
874.851	5060
874.979	5052
875.108	5060
875.237	4919
875.365	4873
875.494	4896
875.623	4938
875.751	4828
875.88	4873
876.008	4965
876.136	4980
876.265	5159
876.393	5345
876.521	5261
876.65	5208
876.778	5212
876.906	5090
877.034	4976
877.162	5064
877.29	5003
877.418	5041
877.546	5014
877.674	5060
877.802	5018
877.93	5025
878.058	4908
878.185	4900
878.313	4923
878.441	4965
878.568	4820
878.696	4866
878.824	4995
878.951	4987
879.079	5121
879.206	5273
879.333	5124
879.461	5022
879.588	5014
879.715	5090
879.842	5201
879.97	4999
880.097	4752
880.224	4767
880.351	4790
880.478	4839
880.605	4831
880.732	4816
880.859	5075
880.986	4877
881.112	4892
881.239	4793
881.366	4683
881.493	4592
881.619	4516
881.746	4626
881.872	4637
881.999	4653
882.125	4668
882.252	4816
882.378	4752
882.505	4953
882.631	4812
882.757	4710
882.883	4672
883.01	4702
883.136	4683
883.262	4618
883.388	4584
883.514	4774
883.64	4854
883.766	4771
883.892	4672
884.018	4733
884.143	4885
884.269	4949
884.395	4637
884.52	4577
884.646	4664
884.772	4584
884.897	4569
885.023	4626
885.148	4774
885.274	4885
885.399	4778
885.524	4694
885.65	4717
885.775	4714
885.9	4664
886.025	4858
886.15	4831
886.275	4717
886.4	4641
886.525	4717
886.65	4733
886.775	4706
886.9	4942
887.025	4976
887.149	4793
887.274	4691
887.399	4588
887.523	4588
887.648	4565
887.773	4565
887.897	4733
888.021	4763
888.146	4641
888.27	4797
888.395	4938
888.519	4786
888.643	4801
888.767	4805
888.891	4691
889.015	4596
889.139	4641
889.263	4565
889.387	4755
889.511	4835
889.635	4797
889.759	4656
889.883	4615
890.006	4744
890.13	4885
890.254	4607
890.377	4653
890.501	4558
890.624	4523
890.748	4596
890.871	4504
890.995	4432
891.118	4360
891.241	4538
891.364	4523
891.488	4649
891.611	4497
891.734	4569
891.857	4611
891.98	4611
892.103	4672
892.226	4554
892.349	4508
892.471	4367
892.594	4569
892.717	4558
892.839	4588
892.962	4603
893.085	4698
893.207	4588
893.33	4447
893.452	4558
893.575	4618
893.697	4531
893.819	4755
893.941	4805
894.064	4763
894.186	4588
894.308	4561
894.43	4759
894.552	4790
894.674	4786
894.796	4523
894.918	4565
895.04	4538
895.161	4721
895.283	4618
895.405	4558
895.526	4645
895.648	4687
895.769	4694
895.891	4736
896.012	4744
896.134	4694
896.255	4668
896.376	4656
896.498	4618
896.619	4687
896.74	4656
896.861	4653
896.982	4942
897.103	5075
897.224	4809
897.345	4702
897.466	4626
897.587	4755
897.708	4858
897.828	4790
897.949	4687
898.07	4565
898.19	4649
898.311	4854
898.431	4672
898.552	4729
898.672	4801
898.792	4744
898.913	4740
899.033	4554
899.153	4504
899.273	4398
899.393	4493
899.513	4558
899.633	4493
899.753	4485
899.873	4523
899.993	4580
900.113	4546
900.232	4558
900.352	4561
900.472	4493
900.591	4413
900.711	4493
900.83	4436
900.95	4634
901.069	4694
901.189	4546
901.308	4344
901.427	4329
901.546	4360
901.665	4516
901.784	4531
901.904	4398
902.023	4363
902.141	4215
902.26	4135
902.379	4299
902.498	4238
902.617	4246
902.735	4432
902.854	4398
902.973	4287
903.091	4169
903.21	4253
903.328	4356
903.446	4246
903.565	4242
903.683	4367
903.801	4261
903.919	4329
904.038	4447
904.156	4295
904.274	4455
904.392	4409
904.51	4451
904.627	4459
904.745	4550
904.863	4599
904.981	4398
905.098	4341
905.216	4379
905.334	4390
905.451	4436
905.569	4417
905.686	4584
905.803	4558
905.921	4409
906.038	4546
906.155	4481
906.272	4356
906.389	4447
906.506	4341
906.623	4356
906.74	4409
906.857	4352
906.974	4310
907.091	4558
907.208	4679
907.324	4611
907.441	4489
907.557	4367
907.674	4344
907.79	4291
907.907	4398
908.023	4531
908.139	4504
908.256	4394
908.372	4462
908.488	4470
908.604	4322
908.72	4341
908.836	4394
908.952	4367
909.068	4447
909.184	4573
909.3	4489
909.415	4611
909.531	4569
909.647	4356
909.762	4390
909.878	4253
909.993	4421
910.108	4451
910.224	4402
910.339	4504
910.454	4424
910.57	4333
910.685	4341
910.8	4683
910.915	4573
911.03	4508
911.145	4295
911.259	4306
911.374	4360
911.489	4303
911.604	4310
911.718	4188
911.833	4215
911.947	4071
912.062	4040
912.176	4227
912.291	4230
912.405	4211
912.519	4466
912.633	4508
912.748	4402
912.862	4322
912.976	4253
913.09	4128
913.204	4181
913.318	4287
913.431	4363
913.545	4341
913.659	4443
913.772	4390
913.886	4249
914	4246
914.113	4379
914.226	4432
914.34	4390
914.453	4207
914.566	4409
914.68	4314
914.793	4329
914.906	4173
915.019	4112
915.132	4116
915.245	4139
915.358	4234
915.47	4200
915.583	4287
915.696	4246
915.809	4405
915.921	4440
916.034	4276
916.146	4253
916.259	4223
916.371	4424
916.483	4360
916.595	4265
916.708	4325
916.82	4329
916.932	4341
917.044	4318
917.156	4306
917.268	4230
917.38	4246
917.491	4284
917.603	4409
917.715	4405
917.826	4386
917.938	4367
918.049	4253
918.161	4386
918.272	4550
918.384	4504
918.495	4478
918.606	4284
918.717	4253
918.828	4352
918.939	4337
919.05	4261
919.161	4344
919.272	4143
919.383	4204
919.494	4405
919.604	4580
919.715	4432
919.826	4303
919.936	4367
920.047	4485
920.157	4478
920.267	4664
920.378	4577
920.488	4535
920.598	4706
920.708	4885
920.818	4725
920.928	4759
921.038	4919
921.148	4972
921.258	4596
921.368	4577
921.477	4493
921.587	4447
921.697	4413
921.806	4558
921.916	4417
922.025	4268
922.134	4261
922.244	4200
922.353	4329
922.462	4177
922.571	4112
922.68	4006
922.789	3991
922.898	4017
923.007	3991
923.116	4112
923.224	4051
923.333	4074
923.442	3998
923.55	4013
923.659	4048
923.767	4105
923.876	3983
923.984	4109
924.092	4013
924.201	4059
924.309	4101
924.417	4124
924.525	4055
924.633	4109
924.741	5056
924.849	3918
924.956	4116
925.064	3945
925.172	3922
925.279	3991
925.387	4071
925.494	4017
925.602	4207
925.709	4112
925.816	4017
925.924	4109
926.031	4207
926.138	4177
926.245	4128
926.352	4128
926.459	4261
926.566	4295
926.673	4158
926.779	4101
926.886	4063
926.993	3987
927.099	3930
927.206	3896
927.312	3918
927.419	4078
927.525	4021
927.631	4101
927.737	3960
927.843	3930
927.95	3896
928.056	3937
928.162	3972
928.267	4013
928.373	4607
928.479	4131
928.585	3884
928.69	4013
928.796	4055
928.901	3975
929.007	3842
929.112	3953
929.218	3926
929.323	3903
929.428	3911
929.533	4082
929.638	3915
929.743	3930
929.848	4017
929.953	3956
930.058	3907
930.163	3751
930.267	3785
930.372	3998
930.477	3835
930.581	4040
930.685	4006
930.79	3789
930.894	3873
930.998	3857
931.103	4040
931.207	3736
931.311	3682
931.415	3690
931.519	3549
931.623	3545
