Data from test_V78500241_2384.txt Node
Date: Fri Mar 25 17:05:34 CST 2022
User: usil
Spectrometer: V785-0024
Trigger mode: 0
Integration Time (sec): 4.000000E-1
Scans to average: 1
Nonlinearity correction enabled: false
Boxcar width: 0
Storing dark spectrum: false
XAxis mode: Wavelengths
Number of Pixels in Spectrum: 1024
>>>>>Begin Spectral Data<<<<<
801.071	8008
801.214	8012
801.356	7883
801.499	7837
801.641	7719
801.783	7856
801.926	7955
802.068	7978
802.211	7978
802.353	7936
802.496	7830
802.638	7860
802.78	7871
802.923	7955
803.065	7921
803.208	7879
803.35	7974
803.492	8119
803.635	8157
803.777	8046
803.919	8195
804.061	8412
804.204	8168
804.346	8081
804.488	7909
804.63	8088
804.773	8012
804.915	8168
805.057	8267
805.199	8176
805.341	8210
805.483	8233
805.626	8187
805.768	8088
805.91	8313
806.052	8195
806.194	8065
806.336	8210
806.478	8084
806.62	8039
806.762	8103
806.904	8206
807.046	8495
807.188	8374
807.33	8279
807.472	8275
807.614	8142
807.756	8081
807.898	8020
808.04	7909
808.182	7894
808.324	7936
808.465	7932
808.607	8058
808.749	8145
808.891	8218
809.033	8351
809.174	8206
809.316	8119
809.458	8145
809.6	8008
809.741	8024
809.883	8035
810.025	8031
810.166	8012
810.308	7928
810.45	7925
810.591	7833
810.733	7746
810.875	7670
811.016	7533
811.158	7480
811.299	7506
811.441	7700
811.582	7666
811.724	7609
811.865	7544
812.007	7575
812.148	7639
812.29	7674
812.431	7734
812.573	7837
812.714	8005
812.855	8145
812.997	8176
813.138	8317
813.279	8206
813.421	8050
813.562	7951
813.703	7818
813.845	7746
813.986	7510
814.127	7263
814.268	7175
814.41	7194
814.551	7179
814.692	7217
814.833	7129
814.974	7122
815.115	7088
815.256	6985
815.397	6916
815.539	6962
815.68	6738
815.821	6818
815.962	6928
816.103	6821
816.244	6707
816.385	6582
816.526	6658
816.666	6509
816.807	6296
816.948	6471
817.089	6498
817.23	6452
817.371	6376
817.512	6418
817.653	6399
817.793	6372
817.934	6403
818.075	6502
818.216	6391
818.356	6391
818.497	6281
818.638	6133
818.778	6175
818.919	6171
819.06	6175
819.2	6285
819.341	6376
819.481	6418
819.622	6574
819.762	6700
819.903	6692
820.043	6559
820.184	6589
820.324	6616
820.465	6741
820.605	6662
820.746	6662
820.886	6521
821.026	6700
821.167	6719
821.307	6806
821.447	6768
821.588	6635
821.728	6608
821.868	6448
822.008	6353
822.149	6350
822.289	6403
822.429	6129
822.569	6125
822.709	6083
822.849	5920
822.99	5882
823.13	5935
823.27	5961
823.41	5893
823.55	5817
823.69	5741
823.83	5771
823.97	5638
824.11	5558
824.25	5482
824.389	5501
824.529	5589
824.669	5532
824.809	5608
824.949	5627
825.089	5627
825.228	5589
825.368	5421
825.508	5353
825.648	5387
825.787	5364
825.927	5357
826.067	5284
826.206	5292
826.346	5326
826.485	5379
826.625	5433
826.765	5566
826.904	5429
827.044	5250
827.183	5197
827.323	5128
827.462	5235
827.601	5132
827.741	5166
827.88	5189
828.02	5109
828.159	5231
828.298	5315
828.437	5391
828.577	5299
828.716	5493
828.855	5349
828.994	5166
829.134	5113
829.273	5151
829.412	5094
829.551	5140
829.69	5166
829.829	5246
829.968	5395
830.107	5223
830.246	5288
830.385	5151
830.524	5136
830.663	5075
830.802	4984
830.941	4908
831.08	4870
831.219	4980
831.357	4938
831.496	5136
831.635	4953
831.774	4816
831.913	4843
832.051	4702
832.19	4733
832.329	4847
832.467	4717
832.606	4664
832.744	4729
832.883	4706
833.022	4725
833.16	4759
833.299	4809
833.437	4854
833.576	4820
833.714	4915
833.852	4900
833.991	4927
834.129	4968
834.267	4927
834.406	4923
834.544	4908
834.682	4987
834.821	4995
834.959	5159
835.097	5014
835.235	5227
835.373	5086
835.511	5090
835.65	5022
835.788	4980
835.926	4896
836.064	4862
836.202	4934
836.34	5124
836.478	5212
836.615	5132
836.753	5208
836.891	5258
837.029	5220
837.167	5193
837.305	5155
837.443	5121
837.58	5086
837.718	5254
837.856	5174
837.993	5185
838.131	5231
838.269	5181
838.406	5151
838.544	5128
838.681	5071
838.819	5025
838.956	4904
839.094	4908
839.231	4957
839.369	5147
839.506	5353
839.643	5269
839.781	5045
839.918	5003
840.055	5037
840.193	5048
840.33	5075
840.467	5162
840.604	5185
840.742	5440
840.879	5086
841.016	5075
841.153	5143
841.29	5402
841.427	5284
841.564	5311
841.701	5334
841.838	5269
841.975	5261
842.112	5250
842.249	5193
842.385	5102
842.522	5318
842.659	5124
842.796	5113
842.933	5136
843.069	5166
843.206	5143
843.343	5315
843.479	5216
843.616	5265
843.752	5029
843.889	5037
844.025	5223
844.162	5006
844.298	5185
844.435	5079
844.571	4991
844.708	5181
844.844	5311
844.98	5372
845.117	5296
845.253	5147
845.389	5105
845.525	5162
845.661	5128
845.798	5045
845.934	5143
846.07	5064
846.206	5159
846.342	5292
846.478	5128
846.614	5041
846.75	4976
846.886	4911
847.022	5159
847.158	5052
847.294	5033
847.429	5132
847.565	5117
847.701	5318
847.837	4820
847.972	4801
848.108	4930
848.244	4961
848.379	4782
848.515	4725
848.65	4748
848.786	4740
848.921	4744
849.057	4858
849.192	4854
849.328	4858
849.463	4831
849.598	4809
849.734	4778
849.869	4702
850.004	4630
850.14	4630
850.275	4634
850.41	4481
850.545	4508
850.68	4607
850.815	4592
850.95	4558
851.085	4843
851.22	4740
851.355	4660
851.49	4653
851.625	4634
851.76	4618
851.895	4573
852.03	4531
852.165	4630
852.299	4691
852.434	4774
852.569	4793
852.703	4801
852.838	4820
852.973	4968
853.107	4904
853.242	4683
853.376	4672
853.511	4569
853.645	4656
853.78	4790
853.914	4672
854.048	4618
854.183	4622
854.317	4694
854.451	4889
854.585	4664
854.72	4645
854.854	4717
854.988	4603
855.122	4672
855.256	4535
855.39	4634
855.524	4793
855.658	4702
855.792	4691
855.926	4698
856.06	4736
856.194	4763
856.327	4664
856.461	4618
856.595	4653
856.729	4656
856.862	4679
856.996	4702
857.13	4714
857.263	4729
857.397	4774
857.53	4622
857.664	4714
857.797	4771
857.931	4778
858.064	4645
858.197	4748
858.331	4607
858.464	4577
858.597	4485
858.731	4603
858.864	4626
858.997	4615
859.13	4622
859.263	4630
859.396	4679
859.529	4592
859.662	4546
859.795	4535
859.928	4645
860.061	4763
860.194	4752
860.327	4611
860.46	4554
860.592	4752
860.725	4675
860.858	4706
860.99	4580
861.123	4493
861.256	4512
861.388	4535
861.521	5273
861.653	4478
861.786	4459
861.918	4421
862.05	4504
862.183	4542
862.315	4569
862.447	4573
862.58	4554
862.712	4428
862.844	4367
862.976	4512
863.108	4440
863.24	4748
863.372	4337
863.504	4428
863.636	4337
863.768	4478
863.9	4466
864.032	4383
864.164	4405
864.296	4481
864.428	4531
864.559	4634
864.691	4577
864.823	4508
864.954	4481
865.086	4531
865.217	4459
865.349	4432
865.48	4466
865.612	4478
865.743	4637
865.875	4443
866.006	4432
866.137	4447
866.269	4481
866.4	4440
866.531	4470
866.662	4481
866.793	4436
866.924	4447
867.055	4527
867.186	4504
867.317	4478
867.448	4383
867.579	4398
867.71	4421
867.841	4390
867.972	4462
868.103	4493
868.233	4459
868.364	4512
868.495	4481
868.625	4706
868.756	4812
868.886	4611
869.017	4634
869.147	4828
869.278	4805
869.408	4740
869.539	4672
869.669	4759
869.799	4755
869.929	4790
870.06	4767
870.19	4987
870.32	4965
870.45	4980
870.58	5033
870.71	5105
870.84	5189
870.97	5018
871.1	4930
871.23	5162
871.36	5174
871.489	5086
871.619	5124
871.749	5117
871.879	5185
872.008	5231
872.138	5079
872.267	5014
872.397	4915
872.526	4828
872.656	4771
872.785	4835
872.915	4946
873.044	5060
873.173	4972
873.303	5022
873.432	5018
873.561	4972
873.69	4957
873.819	4877
873.948	4972
874.077	4812
874.206	4790
874.335	4870
874.464	4877
874.593	5094
874.722	5003
874.851	5132
874.979	5109
875.108	5067
875.237	4946
875.365	4904
875.494	4946
875.623	4987
875.751	4911
875.88	4908
876.008	5006
876.136	5124
876.265	5227
876.393	5387
876.521	5273
876.65	5254
876.778	5208
876.906	5143
877.034	5052
877.162	5143
877.29	5048
877.418	5140
877.546	5075
877.674	5098
877.802	5090
877.93	5067
878.058	4972
878.185	4938
878.313	4972
878.441	5010
878.568	4889
878.696	4930
878.824	5022
878.951	5037
879.079	5189
879.206	5303
879.333	5090
879.461	4968
879.588	5010
879.715	5170
879.842	5303
879.97	5014
880.097	4847
880.224	4748
880.351	4900
880.478	4866
880.605	4782
880.732	4801
880.859	5155
880.986	4934
881.112	4942
881.239	4767
881.366	4656
881.493	4664
881.619	4687
881.746	4660
881.872	4649
881.999	4679
882.125	4733
882.252	4812
882.378	4854
882.505	4980
882.631	4889
882.757	4721
882.883	4736
883.01	4786
883.136	4649
883.262	4630
883.388	4656
883.514	4877
883.64	4866
883.766	4843
883.892	4710
884.018	4717
884.143	4908
884.269	5083
884.395	4694
884.52	4630
884.646	4683
884.772	4603
884.897	4596
885.023	4717
885.148	4820
885.274	4923
885.399	4866
885.524	4752
885.65	4740
885.775	4782
885.9	4736
886.025	4873
886.15	4809
886.275	4790
886.4	4668
886.525	4786
886.65	4759
886.775	4748
886.9	4927
887.025	5086
887.149	4858
887.274	4653
887.399	4607
887.523	4645
887.648	4599
887.773	4607
887.897	4763
888.021	4828
888.146	4702
888.27	4839
888.395	4946
888.519	4843
888.643	4847
888.767	4835
888.891	4698
889.015	4637
889.139	4672
889.263	4618
889.387	4839
889.511	4923
889.635	4797
889.759	4706
889.883	4702
890.006	4797
890.13	4843
890.254	4634
890.377	4706
890.501	4637
890.624	4546
890.748	4660
890.871	4527
890.995	4455
891.118	4394
891.241	4504
891.364	4577
891.488	4637
891.611	4538
891.734	4527
891.857	4645
891.98	4630
892.103	4691
892.226	4641
892.349	4603
892.471	4474
892.594	4573
892.717	4573
892.839	4561
892.962	4634
893.085	4755
893.207	4668
893.33	4527
893.452	4588
893.575	4702
893.697	4626
893.819	4847
893.941	4854
894.064	4793
894.186	4626
894.308	4550
894.43	4774
894.552	4843
894.674	4717
894.796	4546
894.918	4584
895.04	4630
895.161	4786
895.283	4710
895.405	4637
895.526	4664
895.648	4759
895.769	4683
895.891	4752
896.012	4778
896.134	4733
896.255	4710
896.376	4679
896.498	4660
896.619	4672
896.74	4622
896.861	4664
896.982	4953
897.103	5117
897.224	4824
897.345	4778
897.466	4694
897.587	4733
897.708	4873
897.828	4839
897.949	4706
898.07	4637
898.19	4687
898.311	4843
898.431	4698
898.552	4740
898.672	4805
898.792	4790
898.913	4763
899.033	4645
899.153	4523
899.273	4481
899.393	4542
899.513	4569
899.633	4550
899.753	4550
899.873	4485
899.993	4599
900.113	4573
900.232	4618
900.352	4561
900.472	4493
900.591	4455
900.711	4508
900.83	4481
900.95	4641
901.069	4725
901.189	4577
901.308	4405
901.427	4386
901.546	4360
901.665	4462
901.784	4493
901.904	4432
902.023	4348
902.141	4249
902.26	4173
902.379	4352
902.498	4291
902.617	4261
902.735	4386
902.854	4428
902.973	4394
903.091	4265
903.21	4272
903.328	4360
903.446	4276
903.565	4272
903.683	4379
903.801	4337
903.919	4428
904.038	4443
904.156	4322
904.274	4485
904.392	4440
904.51	4436
904.627	4466
904.745	4634
904.863	4641
904.981	4409
905.098	4303
905.216	4337
905.334	4478
905.451	4443
905.569	4451
905.686	4554
905.803	4584
905.921	4466
906.038	4618
906.155	4466
906.272	4394
906.389	4508
906.506	4375
906.623	4398
906.74	4462
906.857	4352
906.974	4413
907.091	4580
907.208	4641
907.324	4611
907.441	4573
907.557	4337
907.674	4417
907.79	4333
907.907	4375
908.023	4485
908.139	4481
908.256	4474
908.372	4497
908.488	4417
908.604	4383
908.72	4367
908.836	4417
908.952	4367
909.068	4459
909.184	4592
909.3	4497
909.415	4611
909.531	4516
909.647	4371
909.762	4375
909.878	4367
909.993	4478
910.108	4451
910.224	4443
910.339	4546
910.454	4436
910.57	4398
910.685	4386
910.8	4683
910.915	4637
911.03	4508
911.145	4344
911.259	4356
911.374	4371
911.489	4310
911.604	4318
911.718	4223
911.833	4219
911.947	4086
912.062	4051
912.176	4246
912.291	4188
912.405	4314
912.519	4500
912.633	4519
912.748	4383
912.862	4341
912.976	4188
913.09	4177
913.204	4158
913.318	4306
913.431	4390
913.545	4386
913.659	4447
913.772	4394
913.886	4253
914	4223
914.113	4398
914.226	4417
914.34	4360
914.453	4238
914.566	4481
914.68	4344
914.793	4325
914.906	4200
915.019	4169
915.132	4128
915.245	4215
915.358	4185
915.47	4306
915.583	4287
915.696	4329
915.809	4459
915.921	4466
916.034	4303
916.146	4265
916.259	4291
916.371	4405
916.483	4337
916.595	4306
916.708	4337
916.82	4356
916.932	4344
917.044	4314
917.156	4329
917.268	4238
917.38	4272
917.491	4272
917.603	4363
917.715	4398
917.826	4466
917.938	4375
918.049	4306
918.161	4421
918.272	4573
918.384	4512
918.495	4455
918.606	4303
918.717	4322
918.828	4329
918.939	4360
919.05	4219
919.161	4325
919.272	4162
919.383	4223
919.494	4497
919.604	4675
919.715	4459
919.826	4325
919.936	4394
920.047	4573
920.157	4512
920.267	4679
920.378	4516
920.488	4489
920.598	4744
920.708	4892
920.818	4755
920.928	4824
921.038	4946
921.148	4885
921.258	4615
921.368	4637
921.477	4558
921.587	4497
921.697	4379
921.806	4531
921.916	4398
922.025	4272
922.134	4265
922.244	4230
922.353	4310
922.462	4150
922.571	4139
922.68	4013
922.789	3979
922.898	4017
923.007	4010
923.116	4097
923.224	4086
923.333	4074
923.442	4032
923.55	3987
923.659	4051
923.767	4116
923.876	4025
923.984	4147
924.092	3983
924.201	4120
924.309	4074
924.417	4135
924.525	4074
924.633	4109
924.741	5064
924.849	3960
924.956	4181
925.064	3953
925.172	3911
925.279	3949
925.387	4067
925.494	4067
925.602	4265
925.709	4188
925.816	4013
925.924	4128
926.031	4242
926.138	4200
926.245	4242
926.352	4143
926.459	4234
926.566	4310
926.673	4169
926.779	4044
926.886	4143
926.993	4017
927.099	3972
927.206	3934
927.312	3930
927.419	4036
927.525	4063
927.631	4093
927.737	4006
927.843	4025
927.95	3846
928.056	3945
928.162	3983
928.267	4040
928.373	4729
928.479	4105
928.585	3964
928.69	4006
928.796	4105
928.901	3998
929.007	3789
929.112	4010
929.218	3975
929.323	3972
929.428	3975
929.533	4109
929.638	3941
929.743	3945
929.848	4071
929.953	4051
930.058	3945
930.163	3778
930.267	3819
930.372	3987
930.477	3781
930.581	4093
930.685	3945
930.79	3857
930.894	3922
930.998	3876
931.103	4093
931.207	3713
931.311	3682
931.415	3682
931.519	3530
931.623	3568
