Data from test_V78500241_423.txt Node
Date: Fri Mar 25 16:51:56 CST 2022
User: usil
Spectrometer: V785-0024
Trigger mode: 0
Integration Time (sec): 4.000000E-1
Scans to average: 1
Nonlinearity correction enabled: false
Boxcar width: 0
Storing dark spectrum: false
XAxis mode: Wavelengths
Number of Pixels in Spectrum: 1024
>>>>>Begin Spectral Data<<<<<
801.071	8020
801.214	8001
801.356	7993
801.499	7822
801.641	7772
801.783	7818
801.926	7963
802.068	7959
802.211	7978
802.353	7989
802.496	7871
802.638	7856
802.78	7898
802.923	7932
803.065	7887
803.208	7909
803.35	7944
803.492	7993
803.635	8077
803.777	8016
803.919	8126
804.061	8469
804.204	8126
804.346	7974
804.488	7982
804.63	8058
804.773	7940
804.915	8115
805.057	8370
805.199	8138
805.341	8233
805.483	8248
805.626	8077
805.768	7978
805.91	8111
806.052	8233
806.194	8062
806.336	8336
806.478	8172
806.62	8119
806.762	8103
806.904	8214
807.046	8438
807.188	8351
807.33	8202
807.472	8248
807.614	8218
807.756	8199
807.898	7944
808.04	7894
808.182	7959
808.324	7978
808.465	7898
808.607	8111
808.749	8107
808.891	8248
809.033	8229
809.174	8138
809.316	8084
809.458	8054
809.6	8073
809.741	8035
809.883	8069
810.025	8107
810.166	8077
810.308	8077
810.45	7989
810.591	7875
810.733	7734
810.875	7738
811.016	7480
811.158	7563
811.299	7674
811.441	7807
811.582	7746
811.724	7590
811.865	7514
812.007	7636
812.148	7571
812.29	7651
812.431	7734
812.573	7913
812.714	8043
812.855	8191
812.997	8259
813.138	8351
813.279	8237
813.421	8191
813.562	8103
813.703	7883
813.845	7852
813.986	7521
814.127	7362
814.268	7324
814.41	7133
814.551	7206
814.692	7251
814.833	7046
814.974	7053
815.115	7137
815.256	6985
815.397	6897
815.539	6993
815.68	6856
815.821	6802
815.962	6905
816.103	6848
816.244	6810
816.385	6627
816.526	6627
816.666	6475
816.807	6319
816.948	6437
817.089	6494
817.23	6513
817.371	6365
817.512	6399
817.653	6441
817.793	6429
817.934	6483
818.075	6464
818.216	6483
818.356	6376
818.497	6266
818.638	6125
818.778	6243
818.919	6110
819.06	6220
819.2	6350
819.341	6281
819.481	6346
819.622	6574
819.762	6772
819.903	6673
820.043	6616
820.184	6582
820.324	6506
820.465	6703
820.605	6684
820.746	6658
820.886	6509
821.026	6612
821.167	6749
821.307	6825
821.447	6749
821.588	6665
821.728	6582
821.868	6479
822.008	6311
822.149	6331
822.289	6376
822.429	6175
822.569	6087
822.709	6098
822.849	5866
822.99	5916
823.13	5973
823.27	5874
823.41	5779
823.55	5844
823.69	5783
823.83	5813
823.97	5665
824.11	5543
824.25	5505
824.389	5543
824.529	5615
824.669	5570
824.809	5592
824.949	5676
825.089	5596
825.228	5535
825.368	5421
825.508	5322
825.648	5368
825.787	5398
825.927	5414
826.067	5364
826.206	5334
826.346	5326
826.485	5368
826.625	5368
826.765	5543
826.904	5497
827.044	5216
827.183	5201
827.323	5162
827.462	5223
827.601	5128
827.741	5204
827.88	5178
828.02	5151
828.159	5258
828.298	5341
828.437	5349
828.577	5299
828.716	5501
828.855	5360
828.994	5155
829.134	5143
829.273	5185
829.412	5162
829.551	5136
829.69	5189
829.829	5220
829.968	5383
830.107	5254
830.246	5292
830.385	5189
830.524	5143
830.663	5060
830.802	4953
830.941	4892
831.08	4911
831.219	4968
831.357	5003
831.496	5170
831.635	4930
831.774	4885
831.913	4877
832.051	4782
832.19	4748
832.329	4812
832.467	4740
832.606	4668
832.744	4721
832.883	4725
833.022	4725
833.16	4816
833.299	4820
833.437	4786
833.576	4759
833.714	4847
833.852	4881
833.991	4919
834.129	4991
834.267	4911
834.406	4915
834.544	4976
834.682	5010
834.821	5006
834.959	5166
835.097	5022
835.235	5128
835.373	5098
835.511	5136
835.65	5041
835.788	5006
835.926	4885
836.064	4919
836.202	4953
836.34	5174
836.478	5258
836.615	5105
836.753	5242
836.891	5326
837.029	5212
837.167	5181
837.305	5181
837.443	5140
837.58	5079
837.718	5250
837.856	5216
837.993	5136
838.131	5242
838.269	5204
838.406	5185
838.544	5159
838.681	5037
838.819	5052
838.956	4900
839.094	4953
839.231	4949
839.369	5033
839.506	5455
839.643	5254
839.781	5075
839.918	5029
840.055	5102
840.193	5140
840.33	5105
840.467	5136
840.604	5227
840.742	5474
840.879	5086
841.016	5090
841.153	5174
841.29	5455
841.427	5357
841.564	5326
841.701	5360
841.838	5258
841.975	5193
842.112	5231
842.249	5159
842.385	5067
842.522	5322
842.659	5189
842.796	5136
842.933	5197
843.069	5117
843.206	5121
843.343	5330
843.479	5216
843.616	5254
843.752	5037
843.889	5006
844.025	5193
844.162	5052
844.298	5246
844.435	5079
844.571	5041
844.708	5193
844.844	5318
844.98	5376
845.117	5345
845.253	5174
845.389	5098
845.525	5155
845.661	5143
845.798	5056
845.934	5113
846.07	5064
846.206	5201
846.342	5235
846.478	5181
846.614	5041
846.75	4911
846.886	4908
847.022	5155
847.158	5029
847.294	5113
847.429	5113
847.565	5071
847.701	5349
847.837	4839
847.972	4831
848.108	4980
848.244	4938
848.379	4801
848.515	4752
848.65	4702
848.786	4801
848.921	4771
849.057	4896
849.192	4870
849.328	4877
849.463	4744
849.598	4816
849.734	4782
849.869	4691
850.004	4634
850.14	4626
850.275	4615
850.41	4550
850.545	4599
850.68	4641
850.815	4664
850.95	4668
851.085	4866
851.22	4755
851.355	4702
851.49	4561
851.625	4618
851.76	4603
851.895	4584
852.03	4550
852.165	4664
852.299	4706
852.434	4786
852.569	4812
852.703	4801
852.838	4797
852.973	4938
853.107	4946
853.242	4721
853.376	4596
853.511	4542
853.645	4630
853.78	4793
853.914	4649
854.048	4626
854.183	4611
854.317	4733
854.451	4824
854.585	4714
854.72	4630
854.854	4744
854.988	4535
855.122	4649
855.256	4535
855.39	4656
855.524	4809
855.658	4698
855.792	4698
855.926	4706
856.06	4710
856.194	4850
856.327	4691
856.461	4634
856.595	4592
856.729	4607
856.862	4752
856.996	4672
857.13	4763
857.263	4793
857.397	4801
857.53	4630
857.664	4748
857.797	4771
857.931	4786
858.064	4714
858.197	4752
858.331	4618
858.464	4592
858.597	4512
858.731	4626
858.864	4649
858.997	4615
859.13	4641
859.263	4683
859.396	4698
859.529	4573
859.662	4561
859.795	4577
859.928	4626
860.061	4812
860.194	4771
860.327	4618
860.46	4588
860.592	4664
860.725	4675
860.858	4725
860.99	4615
861.123	4561
861.256	4535
861.388	4634
861.521	5440
861.653	4500
861.786	4459
861.918	4455
862.05	4531
862.183	4531
862.315	4599
862.447	4611
862.58	4580
862.712	4344
862.844	4329
862.976	4584
863.108	4493
863.24	4793
863.372	4299
863.504	4432
863.636	4443
863.768	4481
863.9	4451
864.032	4379
864.164	4402
864.296	4462
864.428	4565
864.559	4577
864.691	4504
864.823	4527
864.954	4436
865.086	4493
865.217	4455
865.349	4443
865.48	4500
865.612	4527
865.743	4664
865.875	4519
866.006	4459
866.137	4474
866.269	4474
866.4	4443
866.531	4440
866.662	4451
866.793	4436
866.924	4405
867.055	4504
867.186	4432
867.317	4409
867.448	4394
867.579	4375
867.71	4363
867.841	4310
867.972	4440
868.103	4466
868.233	4402
868.364	4440
868.495	4508
868.625	4702
868.756	4790
868.886	4588
869.017	4580
869.147	4816
869.278	4759
869.408	4656
869.539	4584
869.669	4733
869.799	4702
869.929	4755
870.06	4729
870.19	4968
870.32	4854
870.45	4946
870.58	4995
870.71	5132
870.84	5086
870.97	4976
871.1	4915
871.23	5151
871.36	5056
871.489	5018
871.619	5086
871.749	5132
871.879	5140
872.008	5181
872.138	5037
872.267	4949
872.397	4824
872.526	4790
872.656	4717
872.785	4771
872.915	4999
873.044	5033
873.173	4965
873.303	4965
873.432	4968
873.561	4953
873.69	4854
873.819	4896
873.948	4896
874.077	4828
874.206	4759
874.335	4805
874.464	4946
874.593	5098
874.722	4961
874.851	5098
874.979	5052
875.108	5048
875.237	4889
875.365	4828
875.494	4896
875.623	4991
875.751	4862
875.88	4892
876.008	5029
876.136	5056
876.265	5162
876.393	5330
876.521	5261
876.65	5277
876.778	5197
876.906	5052
877.034	4987
877.162	5010
877.29	5018
877.418	5090
877.546	5010
877.674	5083
877.802	5003
877.93	5033
878.058	4927
878.185	4850
878.313	4984
878.441	4927
878.568	4797
878.696	4896
878.824	4953
878.951	5033
879.079	5128
879.206	5250
879.333	5086
879.461	4984
879.588	5037
879.715	5140
879.842	5265
879.97	5056
880.097	4771
880.224	4733
880.351	4763
880.478	4839
880.605	4778
880.732	4755
880.859	5037
880.986	4904
881.112	4927
881.239	4782
881.366	4660
881.493	4577
881.619	4634
881.746	4645
881.872	4698
881.999	4672
882.125	4714
882.252	4755
882.378	4801
882.505	4972
882.631	4847
882.757	4653
882.883	4736
883.01	4778
883.136	4683
883.262	4584
883.388	4634
883.514	4820
883.64	4930
883.766	4831
883.892	4660
884.018	4721
884.143	4908
884.269	4949
884.395	4641
884.52	4656
884.646	4645
884.772	4584
884.897	4573
885.023	4672
885.148	4797
885.274	4873
885.399	4805
885.524	4714
885.65	4687
885.775	4755
885.9	4733
886.025	4835
886.15	4801
886.275	4717
886.4	4702
886.525	4714
886.65	4672
886.775	4733
886.9	4866
887.025	5006
887.149	4839
887.274	4664
887.399	4607
887.523	4618
887.648	4554
887.773	4592
887.897	4744
888.021	4835
888.146	4660
888.27	4809
888.395	4911
888.519	4824
888.643	4824
888.767	4866
888.891	4645
889.015	4584
889.139	4660
889.263	4626
889.387	4809
889.511	4870
889.635	4809
889.759	4596
889.883	4634
890.006	4759
890.13	4820
890.254	4660
890.377	4683
890.501	4512
890.624	4535
890.748	4649
890.871	4561
890.995	4413
891.118	4371
891.241	4531
891.364	4523
891.488	4592
891.611	4508
891.734	4504
891.857	4626
891.98	4561
892.103	4615
892.226	4611
892.349	4527
892.471	4428
892.594	4538
892.717	4577
892.839	4577
892.962	4626
893.085	4664
893.207	4538
893.33	4500
893.452	4565
893.575	4675
893.697	4588
893.819	4786
893.941	4797
894.064	4774
894.186	4542
894.308	4630
894.43	4771
894.552	4820
894.674	4729
894.796	4580
894.918	4596
895.04	4550
895.161	4702
895.283	4679
895.405	4565
895.526	4622
895.648	4733
895.769	4714
895.891	4698
896.012	4687
896.134	4702
896.255	4687
896.376	4660
896.498	4626
896.619	4675
896.74	4584
896.861	4687
896.982	4892
897.103	5086
897.224	4809
897.345	4774
897.466	4637
897.587	4755
897.708	4885
897.828	4767
897.949	4653
898.07	4630
898.19	4664
898.311	4839
898.431	4698
898.552	4755
898.672	4786
898.792	4786
898.913	4702
899.033	4618
899.153	4493
899.273	4405
899.393	4531
899.513	4538
899.633	4497
899.753	4535
899.873	4527
899.993	4523
900.113	4546
900.232	4611
900.352	4538
900.472	4485
900.591	4402
900.711	4493
900.83	4436
900.95	4599
901.069	4721
901.189	4573
901.308	4367
901.427	4348
901.546	4436
901.665	4508
901.784	4558
901.904	4405
902.023	4310
902.141	4196
902.26	4188
902.379	4325
902.498	4299
902.617	4230
902.735	4436
902.854	4348
902.973	4348
903.091	4211
903.21	4223
903.328	4299
903.446	4284
903.565	4299
903.683	4348
903.801	4337
903.919	4459
904.038	4451
904.156	4360
904.274	4478
904.392	4421
904.51	4470
904.627	4519
904.745	4626
904.863	4698
904.981	4447
905.098	4363
905.216	4402
905.334	4394
905.451	4497
905.569	4462
905.686	4618
905.803	4649
905.921	4455
906.038	4569
906.155	4508
906.272	4489
906.389	4493
906.506	4390
906.623	4440
906.74	4417
906.857	4348
906.974	4432
907.091	4622
907.208	4714
907.324	4634
907.441	4546
907.557	4352
907.674	4383
907.79	4352
907.907	4451
908.023	4531
908.139	4508
908.256	4459
908.372	4550
908.488	4512
908.604	4428
908.72	4379
908.836	4417
908.952	4394
909.068	4508
909.184	4622
909.3	4508
909.415	4675
909.531	4611
909.647	4375
909.762	4424
909.878	4413
909.993	4493
910.108	4440
910.224	4474
910.339	4565
910.454	4447
910.57	4405
910.685	4356
910.8	4706
910.915	4641
911.03	4516
911.145	4341
911.259	4394
911.374	4440
911.489	4375
911.604	4344
911.718	4249
911.833	4246
911.947	4131
912.062	4029
912.176	4200
912.291	4329
912.405	4314
912.519	4577
912.633	4596
912.748	4413
912.862	4314
912.976	4265
913.09	4093
913.204	4265
913.318	4284
913.431	4443
913.545	4428
913.659	4512
913.772	4443
913.886	4280
914	4291
914.113	4394
914.226	4478
914.34	4443
914.453	4291
914.566	4436
914.68	4314
914.793	4360
914.906	4219
915.019	4150
915.132	4131
915.245	4211
915.358	4246
915.47	4299
915.583	4299
915.696	4314
915.809	4451
915.921	4459
916.034	4284
916.146	4287
916.259	4223
916.371	4424
916.483	4402
916.595	4287
916.708	4394
916.82	4360
916.932	4383
917.044	4363
917.156	4356
917.268	4276
917.38	4325
917.491	4337
917.603	4375
917.715	4462
917.826	4474
917.938	4424
918.049	4329
918.161	4424
918.272	4554
918.384	4573
918.495	4481
918.606	4344
918.717	4303
918.828	4379
918.939	4443
919.05	4295
919.161	4379
919.272	4120
919.383	4227
919.494	4474
919.604	4656
919.715	4474
919.826	4363
919.936	4390
920.047	4592
920.157	4538
920.267	4748
920.378	4535
920.488	4561
920.598	4717
920.708	4892
920.818	4755
920.928	4790
921.038	4999
921.148	4938
921.258	4653
921.368	4615
921.477	4508
921.587	4443
921.697	4379
921.806	4599
921.916	4462
922.025	4276
922.134	4280
922.244	4299
922.353	4375
922.462	4227
922.571	4181
922.68	4017
922.789	4017
922.898	4044
923.007	4051
923.116	4124
923.224	4143
923.333	4143
923.442	4059
923.55	4040
923.659	4036
923.767	4120
923.876	4074
923.984	4185
924.092	4025
924.201	4120
924.309	4135
924.417	4173
924.525	4124
924.633	4143
924.741	5147
924.849	4029
924.956	4124
925.064	3972
925.172	3945
925.279	4017
925.387	4101
925.494	4101
925.602	4219
925.709	4211
925.816	4055
925.924	4185
926.031	4306
926.138	4192
926.245	4249
926.352	4143
926.459	4249
926.566	4348
926.673	4219
926.779	4143
926.886	4131
926.993	4021
927.099	4021
927.206	3964
927.312	3975
927.419	4074
927.525	4002
927.631	4154
927.737	3968
927.843	3975
927.95	3880
928.056	3987
928.162	4021
928.267	4090
928.373	4740
928.479	4128
928.585	3937
928.69	4078
928.796	4101
928.901	3994
929.007	3899
929.112	4040
929.218	3998
929.323	3991
929.428	3998
929.533	4128
929.638	3956
929.743	3975
929.848	4086
929.953	4032
930.058	3972
930.163	3766
930.267	3873
930.372	4032
930.477	3842
930.581	4135
930.685	3964
930.79	3823
930.894	3903
930.998	3892
931.103	4086
931.207	3740
931.311	3709
931.415	3694
931.519	3545
931.623	3591
