Data from test_V78500241_287.txt Node
Date: Fri Mar 25 16:50:59 CST 2022
User: usil
Spectrometer: V785-0024
Trigger mode: 0
Integration Time (sec): 4.000000E-1
Scans to average: 1
Nonlinearity correction enabled: false
Boxcar width: 0
Storing dark spectrum: false
XAxis mode: Wavelengths
Number of Pixels in Spectrum: 1024
>>>>>Begin Spectral Data<<<<<
801.071	8065
801.214	8008
801.356	7837
801.499	7871
801.641	7845
801.783	7837
801.926	8001
802.068	7944
802.211	8016
802.353	7978
802.496	7928
802.638	7883
802.78	7974
802.923	7921
803.065	7841
803.208	7913
803.35	7947
803.492	8016
803.635	8096
803.777	8031
803.919	8123
804.061	8412
804.204	8161
804.346	7993
804.488	7974
804.63	8123
804.773	7997
804.915	8054
805.057	8271
805.199	8164
805.341	8218
805.483	8233
805.626	8195
805.768	8092
805.91	8153
806.052	8210
806.194	8145
806.336	8252
806.478	8043
806.62	8081
806.762	8077
806.904	8237
807.046	8434
807.188	8400
807.33	8279
807.472	8313
807.614	8199
807.756	8119
807.898	7951
808.04	7830
808.182	7925
808.324	7928
808.465	7947
808.607	8126
808.749	8103
808.891	8206
809.033	8282
809.174	8202
809.316	7989
809.458	8043
809.6	8031
809.741	8012
809.883	8073
810.025	8024
810.166	8145
810.308	7951
810.45	8050
810.591	7830
810.733	7788
810.875	7605
811.016	7556
811.158	7506
811.299	7613
811.441	7784
811.582	7719
811.724	7544
811.865	7540
812.007	7582
812.148	7636
812.29	7601
812.431	7795
812.573	7860
812.714	7955
812.855	8084
812.997	8176
813.138	8267
813.279	8240
813.421	8084
813.562	7982
813.703	7856
813.845	7807
813.986	7510
814.127	7274
814.268	7247
814.41	7251
814.551	7194
814.692	7217
814.833	7042
814.974	7122
815.115	7156
815.256	6943
815.397	6878
815.539	6939
815.68	6791
815.821	6787
815.962	6859
816.103	6783
816.244	6684
816.385	6635
816.526	6639
816.666	6521
816.807	6319
816.948	6399
817.089	6475
817.23	6422
817.371	6403
817.512	6353
817.653	6403
817.793	6353
817.934	6410
818.075	6437
818.216	6384
818.356	6426
818.497	6334
818.638	6098
818.778	6175
818.919	6182
819.06	6167
819.2	6342
819.341	6323
819.481	6372
819.622	6521
819.762	6768
819.903	6658
820.043	6551
820.184	6551
820.324	6578
820.465	6650
820.605	6620
820.746	6646
820.886	6528
821.026	6597
821.167	6696
821.307	6825
821.447	6768
821.588	6631
821.728	6578
821.868	6521
822.008	6308
822.149	6346
822.289	6308
822.429	6110
822.569	6155
822.709	6129
822.849	5912
822.99	5897
823.13	5916
823.27	5923
823.41	5786
823.55	5813
823.69	5756
823.83	5779
823.97	5714
824.11	5562
824.25	5516
824.389	5585
824.529	5600
824.669	5551
824.809	5604
824.949	5657
825.089	5566
825.228	5535
825.368	5398
825.508	5341
825.648	5322
825.787	5368
825.927	5421
826.067	5334
826.206	5292
826.346	5372
826.485	5364
826.625	5368
826.765	5558
826.904	5471
827.044	5242
827.183	5223
827.323	5121
827.462	5258
827.601	5170
827.741	5140
827.88	5231
828.02	5113
828.159	5258
828.298	5280
828.437	5402
828.577	5296
828.716	5459
828.855	5383
828.994	5185
829.134	5136
829.273	5201
829.412	5121
829.551	5181
829.69	5140
829.829	5258
829.968	5421
830.107	5273
830.246	5284
830.385	5189
830.524	5162
830.663	5086
830.802	4995
830.941	4934
831.08	4877
831.219	4991
831.357	4972
831.496	5174
831.635	4923
831.774	4885
831.913	4835
832.051	4740
832.19	4702
832.329	4831
832.467	4679
832.606	4634
832.744	4748
832.883	4733
833.022	4740
833.16	4801
833.299	4793
833.437	4854
833.576	4873
833.714	4850
833.852	4839
833.991	4896
834.129	4946
834.267	4957
834.406	4908
834.544	4976
834.682	4968
834.821	4972
834.959	5208
835.097	4972
835.235	5124
835.373	5060
835.511	5121
835.65	5014
835.788	5075
835.926	4896
836.064	4858
836.202	4915
836.34	5170
836.478	5220
836.615	5117
836.753	5216
836.891	5296
837.029	5223
837.167	5204
837.305	5124
837.443	5174
837.58	5136
837.718	5220
837.856	5155
837.993	5128
838.131	5269
838.269	5181
838.406	5235
838.544	5181
838.681	5048
838.819	4984
838.956	4889
839.094	4885
839.231	4976
839.369	5090
839.506	5452
839.643	5265
839.781	5056
839.918	5025
840.055	5128
840.193	5098
840.33	5155
840.467	5094
840.604	5204
840.742	5497
840.879	5117
841.016	5128
841.153	5189
841.29	5395
841.427	5299
841.564	5379
841.701	5368
841.838	5307
841.975	5246
842.112	5273
842.249	5204
842.385	5094
842.522	5364
842.659	5155
842.796	5189
842.933	5170
843.069	5174
843.206	5181
843.343	5288
843.479	5208
843.616	5258
843.752	5018
843.889	5022
844.025	5174
844.162	5041
844.298	5227
844.435	5105
844.571	5060
844.708	5151
844.844	5307
844.98	5334
845.117	5296
845.253	5086
845.389	5067
845.525	5162
845.661	5170
845.798	5048
845.934	5124
846.07	5079
846.206	5170
846.342	5337
846.478	5147
846.614	5010
846.75	4957
846.886	4961
847.022	5140
847.158	5014
847.294	5105
847.429	5067
847.565	5056
847.701	5341
847.837	4862
847.972	4774
848.108	4946
848.244	4946
848.379	4759
848.515	4698
848.65	4748
848.786	4786
848.921	4786
849.057	4835
849.192	4908
849.328	4839
849.463	4854
849.598	4736
849.734	4740
849.869	4748
850.004	4622
850.14	4653
850.275	4592
850.41	4500
850.545	4577
850.68	4611
850.815	4641
850.95	4641
851.085	4786
851.22	4748
851.355	4660
851.49	4611
851.625	4603
851.76	4634
851.895	4538
852.03	4516
852.165	4672
852.299	4694
852.434	4801
852.569	4729
852.703	4816
852.838	4850
852.973	4938
853.107	4900
853.242	4736
853.376	4683
853.511	4573
853.645	4599
853.78	4809
853.914	4725
854.048	4710
854.183	4599
854.317	4710
854.451	4824
854.585	4672
854.72	4626
854.854	4740
854.988	4618
855.122	4622
855.256	4493
855.39	4672
855.524	4740
855.658	4733
855.792	4675
855.926	4729
856.06	4748
856.194	4793
856.327	4736
856.461	4618
856.595	4615
856.729	4622
856.862	4759
856.996	4653
857.13	4706
857.263	4771
857.397	4812
857.53	4656
857.664	4729
857.797	4748
857.931	4816
858.064	4664
858.197	4691
858.331	4618
858.464	4634
858.597	4554
858.731	4630
858.864	4615
858.997	4561
859.13	4679
859.263	4679
859.396	4698
859.529	4596
859.662	4523
859.795	4577
859.928	4626
860.061	4740
860.194	4771
860.327	4618
860.46	4611
860.592	4721
860.725	4694
860.858	4687
860.99	4607
861.123	4527
861.256	4554
861.388	4584
861.521	5322
861.653	4497
861.786	4428
861.918	4493
862.05	4546
862.183	4558
862.315	4573
862.447	4668
862.58	4538
862.712	4398
862.844	4314
862.976	4497
863.108	4470
863.24	4862
863.372	4337
863.504	4451
863.636	4363
863.768	4485
863.9	4421
864.032	4337
864.164	4390
864.296	4440
864.428	4569
864.559	4588
864.691	4516
864.823	4489
864.954	4516
865.086	4527
865.217	4447
865.349	4432
865.48	4489
865.612	4497
865.743	4588
865.875	4413
866.006	4402
866.137	4432
866.269	4447
866.4	4421
866.531	4485
866.662	4409
866.793	4447
866.924	4409
867.055	4500
867.186	4421
867.317	4386
867.448	4348
867.579	4356
867.71	4421
867.841	4375
867.972	4512
868.103	4447
868.233	4451
868.364	4443
868.495	4470
868.625	4706
868.756	4801
868.886	4573
869.017	4580
869.147	4828
869.278	4786
869.408	4653
869.539	4653
869.669	4714
869.799	4653
869.929	4752
870.06	4748
870.19	4946
870.32	4965
870.45	4915
870.58	4987
870.71	5098
870.84	5105
870.97	5003
871.1	4892
871.23	5143
871.36	5124
871.489	4995
871.619	5006
871.749	5064
871.879	5113
872.008	5181
872.138	5037
872.267	5018
872.397	4839
872.526	4831
872.656	4721
872.785	4790
872.915	4885
873.044	4987
873.173	4991
873.303	4987
873.432	4961
873.561	4949
873.69	4866
873.819	4843
873.948	4923
874.077	4847
874.206	4774
874.335	4809
874.464	4957
874.593	5014
874.722	4999
874.851	5117
874.979	5041
875.108	5071
875.237	4968
875.365	4911
875.494	4850
875.623	5003
875.751	4790
875.88	4870
876.008	4980
876.136	5006
876.265	5159
876.393	5326
876.521	5258
876.65	5246
876.778	5189
876.906	5060
877.034	5014
877.162	5083
877.29	5006
877.418	5041
877.546	5083
877.674	5041
877.802	4984
877.93	4999
878.058	4968
878.185	4847
878.313	4972
878.441	4942
878.568	4850
878.696	4881
878.824	4923
878.951	5033
879.079	5090
879.206	5288
879.333	5098
879.461	4915
879.588	5022
879.715	5174
879.842	5235
879.97	5014
880.097	4797
880.224	4733
880.351	4831
880.478	4824
880.605	4801
880.732	4786
880.859	5098
880.986	4889
881.112	4934
881.239	4744
881.366	4698
881.493	4611
881.619	4565
881.746	4637
881.872	4656
881.999	4641
882.125	4694
882.252	4790
882.378	4847
882.505	4991
882.631	4828
882.757	4637
882.883	4767
883.01	4710
883.136	4668
883.262	4634
883.388	4603
883.514	4805
883.64	4889
883.766	4778
883.892	4736
884.018	4729
884.143	4889
884.269	5010
884.395	4656
884.52	4592
884.646	4626
884.772	4584
884.897	4577
885.023	4675
885.148	4812
885.274	4847
885.399	4828
885.524	4721
885.65	4656
885.775	4698
885.9	4687
886.025	4866
886.15	4805
886.275	4748
886.4	4641
886.525	4714
886.65	4694
886.775	4660
886.9	4896
887.025	5029
887.149	4847
887.274	4630
887.399	4607
887.523	4611
887.648	4599
887.773	4607
887.897	4748
888.021	4816
888.146	4702
888.27	4831
888.395	4923
888.519	4782
888.643	4812
888.767	4847
888.891	4668
889.015	4611
889.139	4618
889.263	4611
889.387	4759
889.511	4858
889.635	4778
889.759	4679
889.883	4653
890.006	4725
890.13	4877
890.254	4622
890.377	4675
890.501	4577
890.624	4538
890.748	4630
890.871	4504
890.995	4440
891.118	4402
891.241	4523
891.364	4535
891.488	4611
891.611	4489
891.734	4512
891.857	4634
891.98	4554
892.103	4649
892.226	4588
892.349	4527
892.471	4455
892.594	4584
892.717	4584
892.839	4565
892.962	4618
893.085	4653
893.207	4622
893.33	4474
893.452	4546
893.575	4672
893.697	4592
893.819	4805
893.941	4866
894.064	4782
894.186	4626
894.308	4538
894.43	4687
894.552	4816
894.674	4767
894.796	4565
894.918	4618
895.04	4588
895.161	4694
895.283	4656
895.405	4588
895.526	4637
895.648	4683
895.769	4698
895.891	4725
896.012	4694
896.134	4679
896.255	4687
896.376	4630
896.498	4611
896.619	4660
896.74	4603
896.861	4634
896.982	4942
897.103	5037
897.224	4820
897.345	4755
897.466	4710
897.587	4714
897.708	4816
897.828	4782
897.949	4687
898.07	4622
898.19	4630
898.311	4801
898.431	4668
898.552	4767
898.672	4824
898.792	4839
898.913	4721
899.033	4618
899.153	4504
899.273	4466
899.393	4485
899.513	4466
899.633	4546
899.753	4535
899.873	4527
899.993	4565
900.113	4531
900.232	4622
900.352	4523
900.472	4489
900.591	4390
900.711	4512
900.83	4432
900.95	4630
901.069	4702
901.189	4546
901.308	4409
901.427	4299
901.546	4379
901.665	4489
901.784	4535
901.904	4352
902.023	4367
902.141	4150
902.26	4147
902.379	4344
902.498	4238
902.617	4249
902.735	4356
902.854	4375
902.973	4383
903.091	4265
903.21	4188
903.328	4295
903.446	4265
903.565	4272
903.683	4337
903.801	4227
903.919	4424
904.038	4421
904.156	4322
904.274	4428
904.392	4390
904.51	4367
904.627	4497
904.745	4565
904.863	4618
904.981	4409
905.098	4291
905.216	4352
905.334	4398
905.451	4428
905.569	4424
905.686	4550
905.803	4538
905.921	4432
906.038	4523
906.155	4489
906.272	4371
906.389	4451
906.506	4344
906.623	4394
906.74	4375
906.857	4348
906.974	4386
907.091	4523
907.208	4694
907.324	4637
907.441	4478
907.557	4341
907.674	4333
907.79	4310
907.907	4371
908.023	4466
908.139	4497
908.256	4421
908.372	4489
908.488	4455
908.604	4348
908.72	4383
908.836	4356
908.952	4379
909.068	4459
909.184	4565
909.3	4474
909.415	4554
909.531	4565
909.647	4303
909.762	4409
909.878	4386
909.993	4451
910.108	4375
910.224	4394
910.339	4466
910.454	4383
910.57	4398
910.685	4246
910.8	4618
910.915	4622
911.03	4497
911.145	4314
911.259	4310
911.374	4402
911.489	4295
911.604	4249
911.718	4147
911.833	4211
911.947	4048
912.062	4036
912.176	4192
912.291	4261
912.405	4238
912.519	4481
912.633	4508
912.748	4348
912.862	4291
912.976	4173
913.09	4036
913.204	4169
913.318	4268
913.431	4402
913.545	4337
913.659	4405
913.772	4341
913.886	4284
914	4257
914.113	4383
914.226	4390
914.34	4356
914.453	4227
914.566	4462
914.68	4280
914.793	4348
914.906	4128
915.019	4097
915.132	4067
915.245	4169
915.358	4204
915.47	4291
915.583	4257
915.696	4329
915.809	4455
915.921	4371
916.034	4287
916.146	4303
916.259	4238
916.371	4375
916.483	4394
916.595	4299
916.708	4371
916.82	4333
916.932	4352
917.044	4341
917.156	4367
917.268	4253
917.38	4272
917.491	4322
917.603	4341
917.715	4432
917.826	4470
917.938	4390
918.049	4337
918.161	4470
918.272	4641
918.384	4538
918.495	4481
918.606	4306
918.717	4253
918.828	4356
918.939	4409
919.05	4333
919.161	4386
919.272	4154
919.383	4268
919.494	4508
919.604	4668
919.715	4485
919.826	4417
919.936	4409
920.047	4588
920.157	4550
920.267	4706
920.378	4588
920.488	4569
920.598	4805
920.708	4896
920.818	4748
920.928	4801
921.038	4980
921.148	5014
921.258	4691
921.368	4577
921.477	4546
921.587	4489
921.697	4394
921.806	4603
921.916	4459
922.025	4356
922.134	4341
922.244	4287
922.353	4398
922.462	4238
922.571	4158
922.68	4059
922.789	4036
922.898	4078
923.007	4051
923.116	4154
923.224	4101
923.333	4177
923.442	3975
923.55	4055
923.659	4101
923.767	4162
923.876	4017
923.984	4188
924.092	4032
924.201	4185
924.309	4128
924.417	4154
924.525	4112
924.633	4124
924.741	5098
924.849	3979
924.956	4169
925.064	4032
925.172	3945
925.279	3994
925.387	4109
925.494	4116
925.602	4276
925.709	4230
925.816	4044
925.924	4169
926.031	4310
926.138	4223
926.245	4219
926.352	4116
926.459	4310
926.566	4386
926.673	4188
926.779	4109
926.886	4124
926.993	4067
927.099	4006
927.206	3964
927.312	4021
927.419	4116
927.525	4055
927.631	4131
927.737	4025
927.843	4017
927.95	3892
928.056	4010
928.162	4078
928.267	4063
928.373	4752
928.479	4173
928.585	3918
928.69	4021
928.796	4135
928.901	3987
929.007	3854
929.112	4051
929.218	4010
929.323	4002
929.428	3987
929.533	4143
929.638	3937
929.743	3983
929.848	4017
929.953	4040
930.058	3937
930.163	3778
930.267	3930
930.372	4067
930.477	3865
930.581	4074
930.685	4002
930.79	3869
930.894	3903
930.998	3930
931.103	4059
931.207	3728
931.311	3705
931.415	3705
931.519	3534
931.623	3591
