Data from test_V78500241_823.txt Node
Date: Fri Mar 25 16:54:43 CST 2022
User: usil
Spectrometer: V785-0024
Trigger mode: 0
Integration Time (sec): 4.000000E-1
Scans to average: 1
Nonlinearity correction enabled: false
Boxcar width: 0
Storing dark spectrum: false
XAxis mode: Wavelengths
Number of Pixels in Spectrum: 1024
>>>>>Begin Spectral Data<<<<<
801.071	8043
801.214	8054
801.356	7894
801.499	7856
801.641	7826
801.783	7894
801.926	8027
802.068	7951
802.211	7978
802.353	8005
802.496	7822
802.638	7982
802.78	7864
802.923	7947
803.065	7906
803.208	7906
803.35	7986
803.492	8107
803.635	8225
803.777	8043
803.919	8069
804.061	8358
804.204	8123
804.346	8005
804.488	7982
804.63	8126
804.773	7993
804.915	8088
805.057	8279
805.199	8153
805.341	8248
805.483	8298
805.626	8183
805.768	8126
805.91	8199
806.052	8180
806.194	8107
806.336	8206
806.478	8111
806.62	8103
806.762	8103
806.904	8271
807.046	8537
807.188	8317
807.33	8282
807.472	8370
807.614	8149
807.756	8088
807.898	8081
808.04	7864
808.182	7959
808.324	7894
808.465	7925
808.607	8088
808.749	8077
808.891	8183
809.033	8290
809.174	8202
809.316	8111
809.458	8039
809.6	7974
809.741	8077
809.883	8027
810.025	8115
810.166	8096
810.308	8039
810.45	8031
810.591	7860
810.733	7814
810.875	7753
811.016	7582
811.158	7441
811.299	7578
811.441	7700
811.582	7689
811.724	7590
811.865	7544
812.007	7582
812.148	7556
812.29	7639
812.431	7689
812.573	7799
812.714	7944
812.855	8046
812.997	8157
813.138	8294
813.279	8149
813.421	8084
813.562	8077
813.703	7792
813.845	7833
813.986	7419
814.127	7293
814.268	7255
814.41	7168
814.551	7129
814.692	7171
814.833	7027
814.974	7095
815.115	7076
815.256	7004
815.397	6867
815.539	7008
815.68	6894
815.821	6814
815.962	6810
816.103	6859
816.244	6696
816.385	6601
816.526	6646
816.666	6509
816.807	6262
816.948	6380
817.089	6494
817.23	6460
817.371	6361
817.512	6350
817.653	6391
817.793	6391
817.934	6391
818.075	6448
818.216	6410
818.356	6353
818.497	6319
818.638	6190
818.778	6159
818.919	6121
819.06	6148
819.2	6251
819.341	6331
819.481	6395
819.622	6589
819.762	6753
819.903	6696
820.043	6646
820.184	6578
820.324	6597
820.465	6608
820.605	6623
820.746	6654
820.886	6467
821.026	6665
821.167	6631
821.307	6795
821.447	6745
821.588	6658
821.728	6597
821.868	6456
822.008	6334
822.149	6376
822.289	6361
822.429	6125
822.569	6095
822.709	6095
822.849	5908
822.99	5961
823.13	5935
823.27	5969
823.41	5805
823.55	5783
823.69	5809
823.83	5756
823.97	5676
824.11	5524
824.25	5520
824.389	5573
824.529	5592
824.669	5532
824.809	5634
824.949	5672
825.089	5630
825.228	5558
825.368	5417
825.508	5353
825.648	5364
825.787	5383
825.927	5341
826.067	5341
826.206	5345
826.346	5372
826.485	5444
826.625	5368
826.765	5577
826.904	5455
827.044	5273
827.183	5193
827.323	5071
827.462	5212
827.601	5220
827.741	5185
827.88	5185
828.02	5143
828.159	5223
828.298	5299
828.437	5383
828.577	5296
828.716	5467
828.855	5299
828.994	5185
829.134	5143
829.273	5185
829.412	5098
829.551	5102
829.69	5128
829.829	5250
829.968	5337
830.107	5288
830.246	5261
830.385	5178
830.524	5105
830.663	5067
830.802	4938
830.941	4900
831.08	4881
831.219	4984
831.357	4976
831.496	5162
831.635	4942
831.774	4885
831.913	4904
832.051	4714
832.19	4778
832.329	4816
832.467	4774
832.606	4634
832.744	4767
832.883	4710
833.022	4736
833.16	4790
833.299	4805
833.437	4866
833.576	4828
833.714	4847
833.852	4881
833.991	4896
834.129	4957
834.267	4991
834.406	4881
834.544	4999
834.682	4991
834.821	4991
834.959	5140
835.097	4972
835.235	5189
835.373	5109
835.511	5075
835.65	5064
835.788	5006
835.926	4938
836.064	4889
836.202	4923
836.34	5181
836.478	5242
836.615	5147
836.753	5235
836.891	5269
837.029	5254
837.167	5235
837.305	5174
837.443	5178
837.58	5121
837.718	5265
837.856	5204
837.993	5147
838.131	5193
838.269	5223
838.406	5201
838.544	5155
838.681	5083
838.819	5041
838.956	4881
839.094	4980
839.231	5056
839.369	5102
839.506	5433
839.643	5303
839.781	5086
839.918	5056
840.055	5124
840.193	5121
840.33	5079
840.467	5166
840.604	5227
840.742	5368
840.879	5067
841.016	5117
841.153	5067
841.29	5410
841.427	5318
841.564	5334
841.701	5353
841.838	5258
841.975	5227
842.112	5261
842.249	5102
842.385	5155
842.522	5318
842.659	5178
842.796	5098
842.933	5174
843.069	5140
843.206	5136
843.343	5326
843.479	5239
843.616	5254
843.752	4976
843.889	5052
844.025	5208
844.162	4987
844.298	5193
844.435	5105
844.571	5056
844.708	5197
844.844	5269
844.98	5280
845.117	5258
845.253	5197
845.389	5083
845.525	5098
845.661	5128
845.798	5025
845.934	5174
846.07	5022
846.206	5170
846.342	5223
846.478	5166
846.614	5037
846.75	4995
846.886	4968
847.022	5102
847.158	4991
847.294	5094
847.429	5071
847.565	5048
847.701	5322
847.837	4816
847.972	4831
848.108	4968
848.244	4900
848.379	4763
848.515	4755
848.65	4748
848.786	4725
848.921	4759
849.057	4885
849.192	4870
849.328	4812
849.463	4805
849.598	4778
849.734	4793
849.869	4702
850.004	4626
850.14	4675
850.275	4554
850.41	4470
850.545	4573
850.68	4611
850.815	4626
850.95	4618
851.085	4847
851.22	4714
851.355	4641
851.49	4660
851.625	4649
851.76	4630
851.895	4512
852.03	4558
852.165	4660
852.299	4706
852.434	4831
852.569	4771
852.703	4725
852.838	4816
852.973	4923
853.107	4927
853.242	4733
853.376	4668
853.511	4558
853.645	4558
853.78	4763
853.914	4668
854.048	4702
854.183	4664
854.317	4694
854.451	4870
854.585	4615
854.72	4672
854.854	4763
854.988	4618
855.122	4626
855.256	4504
855.39	4687
855.524	4778
855.658	4740
855.792	4725
855.926	4729
856.06	4740
856.194	4809
856.327	4683
856.461	4577
856.595	4622
856.729	4607
856.862	4714
856.996	4736
857.13	4717
857.263	4714
857.397	4763
857.53	4615
857.664	4710
857.797	4748
857.931	4744
858.064	4630
858.197	4748
858.331	4694
858.464	4607
858.597	4497
858.731	4615
858.864	4637
858.997	4584
859.13	4641
859.263	4702
859.396	4714
859.529	4542
859.662	4584
859.795	4531
859.928	4630
860.061	4771
860.194	4774
860.327	4618
860.46	4565
860.592	4717
860.725	4733
860.858	4664
860.99	4634
861.123	4535
861.256	4512
861.388	4607
861.521	5326
861.653	4542
861.786	4466
861.918	4436
862.05	4535
862.183	4538
862.315	4630
862.447	4672
862.58	4550
862.712	4421
862.844	4314
862.976	4424
863.108	4462
863.24	4771
863.372	4314
863.504	4474
863.636	4409
863.768	4493
863.9	4443
864.032	4352
864.164	4383
864.296	4466
864.428	4527
864.559	4573
864.691	4504
864.823	4504
864.954	4500
865.086	4485
865.217	4493
865.349	4421
865.48	4424
865.612	4489
865.743	4626
865.875	4466
866.006	4432
866.137	4478
866.269	4451
866.4	4447
866.531	4424
866.662	4367
866.793	4379
866.924	4360
867.055	4500
867.186	4447
867.317	4440
867.448	4360
867.579	4432
867.71	4394
867.841	4337
867.972	4432
868.103	4466
868.233	4443
868.364	4440
868.495	4451
868.625	4637
868.756	4725
868.886	4554
869.017	4603
869.147	4805
869.278	4752
869.408	4622
869.539	4630
869.669	4691
869.799	4630
869.929	4710
870.06	4729
870.19	4953
870.32	4908
870.45	4965
870.58	4953
870.71	5132
870.84	5117
870.97	4961
871.1	4911
871.23	5067
871.36	5121
871.489	5029
871.619	5086
871.749	5136
871.879	5102
872.008	5189
872.138	5071
872.267	4999
872.397	4858
872.526	4793
872.656	4725
872.785	4809
872.915	4881
873.044	5025
873.173	4923
873.303	4953
873.432	4949
873.561	4900
873.69	4866
873.819	4877
873.948	4843
874.077	4866
874.206	4771
874.335	4759
874.464	4961
874.593	5018
874.722	4934
874.851	5109
874.979	5079
875.108	5033
875.237	4908
875.365	4862
875.494	4854
875.623	4965
875.751	4854
875.88	4866
876.008	4961
876.136	4953
876.265	5208
876.393	5376
876.521	5235
876.65	5231
876.778	5162
876.906	5033
877.034	5003
877.162	4980
877.29	4995
877.418	5029
877.546	5006
877.674	5048
877.802	5010
877.93	5029
878.058	4938
878.185	4843
878.313	4991
878.441	4911
878.568	4839
878.696	4862
878.824	4915
878.951	4965
879.079	5075
879.206	5299
879.333	5079
879.461	4995
879.588	4987
879.715	5083
879.842	5242
879.97	4972
880.097	4752
880.224	4729
880.351	4740
880.478	4805
880.605	4767
880.732	4797
880.859	5128
880.986	4862
881.112	4923
881.239	4767
881.366	4702
881.493	4637
881.619	4618
881.746	4634
881.872	4641
881.999	4645
882.125	4687
882.252	4790
882.378	4812
882.505	4946
882.631	4752
882.757	4694
882.883	4729
883.01	4714
883.136	4653
883.262	4637
883.388	4637
883.514	4782
883.64	4877
883.766	4786
883.892	4660
884.018	4710
884.143	4858
884.269	4976
884.395	4645
884.52	4588
884.646	4649
884.772	4558
884.897	4538
885.023	4683
885.148	4778
885.274	4828
885.399	4824
885.524	4694
885.65	4729
885.775	4744
885.9	4706
886.025	4850
886.15	4786
886.275	4714
886.4	4634
886.525	4710
886.65	4691
886.775	4630
886.9	4870
887.025	5098
887.149	4805
887.274	4668
887.399	4599
887.523	4615
887.648	4561
887.773	4550
887.897	4740
888.021	4774
888.146	4664
888.27	4820
888.395	4896
888.519	4759
888.643	4839
888.767	4767
888.891	4668
889.015	4634
889.139	4664
889.263	4615
889.387	4782
889.511	4854
889.635	4793
889.759	4634
889.883	4622
890.006	4679
890.13	4862
890.254	4611
890.377	4679
890.501	4527
890.624	4497
890.748	4592
890.871	4451
890.995	4375
891.118	4363
891.241	4478
891.364	4550
891.488	4656
891.611	4485
891.734	4535
891.857	4546
891.98	4558
892.103	4626
892.226	4626
892.349	4497
892.471	4451
892.594	4519
892.717	4588
892.839	4546
892.962	4596
893.085	4649
893.207	4577
893.33	4489
893.452	4512
893.575	4618
893.697	4531
893.819	4755
893.941	4824
894.064	4801
894.186	4565
894.308	4588
894.43	4710
894.552	4831
894.674	4702
894.796	4519
894.918	4573
895.04	4565
895.161	4683
895.283	4637
895.405	4596
895.526	4592
895.648	4687
895.769	4687
895.891	4744
896.012	4771
896.134	4698
896.255	4691
896.376	4641
896.498	4584
896.619	4706
896.74	4622
896.861	4649
896.982	4896
897.103	5064
897.224	4828
897.345	4748
897.466	4675
897.587	4702
897.708	4885
897.828	4774
897.949	4672
898.07	4546
898.19	4622
898.311	4831
898.431	4675
898.552	4710
898.672	4793
898.792	4839
898.913	4755
899.033	4694
899.153	4489
899.273	4421
899.393	4538
899.513	4478
899.633	4493
899.753	4512
899.873	4531
899.993	4577
900.113	4508
900.232	4599
900.352	4512
900.472	4478
900.591	4417
900.711	4497
900.83	4428
900.95	4546
901.069	4717
901.189	4569
901.308	4337
901.427	4306
901.546	4352
901.665	4489
901.784	4508
901.904	4360
902.023	4314
902.141	4188
902.26	4154
902.379	4268
902.498	4249
902.617	4211
902.735	4344
902.854	4379
902.973	4348
903.091	4185
903.21	4196
903.328	4280
903.446	4257
903.565	4280
903.683	4333
903.801	4287
903.919	4371
904.038	4443
904.156	4318
904.274	4447
904.392	4383
904.51	4451
904.627	4489
904.745	4512
904.863	4565
904.981	4379
905.098	4291
905.216	4344
905.334	4417
905.451	4424
905.569	4440
905.686	4546
905.803	4599
905.921	4421
906.038	4516
906.155	4489
906.272	4375
906.389	4428
906.506	4344
906.623	4424
906.74	4398
906.857	4291
906.974	4383
907.091	4565
907.208	4664
907.324	4558
907.441	4489
907.557	4341
907.674	4356
907.79	4325
907.907	4424
908.023	4478
908.139	4447
908.256	4432
908.372	4451
908.488	4428
908.604	4360
908.72	4333
908.836	4409
908.952	4405
909.068	4417
909.184	4546
909.3	4481
909.415	4599
909.531	4546
909.647	4314
909.762	4344
909.878	4352
909.993	4428
910.108	4375
910.224	4409
910.339	4459
910.454	4390
910.57	4417
910.685	4314
910.8	4637
910.915	4596
911.03	4481
911.145	4306
911.259	4356
911.374	4352
911.489	4303
911.604	4280
911.718	4181
911.833	4230
911.947	4044
912.062	3975
912.176	4230
912.291	4242
912.405	4223
912.519	4481
912.633	4519
912.748	4329
912.862	4337
912.976	4158
913.09	4082
913.204	4147
913.318	4238
913.431	4352
913.545	4360
913.659	4440
913.772	4371
913.886	4234
914	4227
914.113	4409
914.226	4417
914.34	4409
914.453	4230
914.566	4443
914.68	4337
914.793	4322
914.906	4169
915.019	4105
915.132	4036
915.245	4154
915.358	4173
915.47	4192
915.583	4234
915.696	4295
915.809	4386
915.921	4436
916.034	4272
916.146	4253
916.259	4219
916.371	4379
916.483	4318
916.595	4238
916.708	4314
916.82	4356
916.932	4303
917.044	4356
917.156	4363
917.268	4249
917.38	4299
917.491	4306
917.603	4337
917.715	4371
917.826	4443
917.938	4310
918.049	4242
918.161	4402
918.272	4531
918.384	4538
918.495	4451
918.606	4329
918.717	4215
918.828	4295
918.939	4341
919.05	4284
919.161	4318
919.272	4135
919.383	4246
919.494	4455
919.604	4641
919.715	4421
919.826	4322
919.936	4356
920.047	4516
920.157	4478
920.267	4706
920.378	4538
920.488	4504
920.598	4710
920.708	4862
920.818	4771
920.928	4790
921.038	4980
921.148	4915
921.258	4558
921.368	4577
921.477	4497
921.587	4462
921.697	4409
921.806	4542
921.916	4459
922.025	4257
922.134	4257
922.244	4188
922.353	4348
922.462	4139
922.571	4120
922.68	3968
922.789	3979
922.898	4013
923.007	3956
923.116	4128
923.224	4067
923.333	4071
923.442	3987
923.55	3960
923.659	4040
923.767	4097
923.876	4002
923.984	4124
924.092	3975
924.201	4093
924.309	4067
924.417	4162
924.525	4040
924.633	4059
924.741	4892
924.849	3911
924.956	4116
925.064	3926
925.172	3896
925.279	3964
925.387	4021
925.494	4017
925.602	4204
925.709	4154
925.816	4025
925.924	4147
926.031	4169
926.138	4166
926.245	4181
926.352	4063
926.459	4272
926.566	4284
926.673	4154
926.779	4074
926.886	4086
926.993	3960
927.099	3915
927.206	3953
927.312	3892
927.419	4032
927.525	4032
927.631	4097
927.737	3934
927.843	3918
927.95	3869
928.056	3899
928.162	3949
928.267	4051
928.373	4649
928.479	4101
928.585	3884
928.69	4010
928.796	4048
928.901	3960
929.007	3808
929.112	3979
929.218	3968
929.323	3960
929.428	3934
929.533	4059
929.638	3922
929.743	3941
929.848	4055
929.953	3998
930.058	3960
930.163	3740
930.267	3808
930.372	3941
930.477	3808
930.581	4074
930.685	3884
930.79	3812
930.894	3850
930.998	3827
931.103	4071
931.207	3679
931.311	3694
931.415	3648
931.519	3564
931.623	3580
