Data from test_V78500241_165.txt Node
Date: Fri Mar 25 16:50:09 CST 2022
User: usil
Spectrometer: V785-0024
Trigger mode: 0
Integration Time (sec): 4.000000E-1
Scans to average: 1
Nonlinearity correction enabled: false
Boxcar width: 0
Storing dark spectrum: false
XAxis mode: Wavelengths
Number of Pixels in Spectrum: 1024
>>>>>Begin Spectral Data<<<<<
801.071	8050
801.214	8005
801.356	7898
801.499	7799
801.641	7826
801.783	7814
801.926	7974
802.068	7913
802.211	7986
802.353	7986
802.496	7826
802.638	7921
802.78	7928
802.923	7921
803.065	7761
803.208	7852
803.35	7944
803.492	8050
803.635	8149
803.777	7963
803.919	8100
804.061	8347
804.204	8073
804.346	8031
804.488	7940
804.63	8073
804.773	7970
804.915	8012
805.057	8195
805.199	8103
805.341	8142
805.483	8286
805.626	8176
805.768	8062
805.91	8202
806.052	8149
806.194	8065
806.336	8252
806.478	8142
806.62	8065
806.762	8054
806.904	8157
807.046	8396
807.188	8320
807.33	8339
807.472	8275
807.614	8183
807.756	8103
807.898	8001
808.04	7849
808.182	7852
808.324	7936
808.465	7940
808.607	7978
808.749	8046
808.891	8240
809.033	8320
809.174	8119
809.316	8058
809.458	8043
809.6	7986
809.741	8046
809.883	8027
810.025	8069
810.166	8062
810.308	7967
810.45	8035
810.591	7898
810.733	7753
810.875	7772
811.016	7533
811.158	7521
811.299	7597
811.441	7788
811.582	7666
811.724	7590
811.865	7548
812.007	7628
812.148	7632
812.29	7628
812.431	7757
812.573	7944
812.714	8012
812.855	8214
812.997	8244
813.138	8355
813.279	8119
813.421	8084
813.562	8065
813.703	7917
813.845	7841
813.986	7434
814.127	7228
814.268	7270
814.41	7209
814.551	7133
814.692	7221
814.833	7149
814.974	7175
815.115	7179
815.256	7042
815.397	6947
815.539	7023
815.68	6848
815.821	6798
815.962	6871
816.103	6810
816.244	6772
816.385	6631
816.526	6642
816.666	6486
816.807	6350
816.948	6498
817.089	6525
817.23	6502
817.371	6448
817.512	6399
817.653	6369
817.793	6331
817.934	6361
818.075	6513
818.216	6452
818.356	6350
818.497	6304
818.638	6114
818.778	6175
818.919	6171
819.06	6133
819.2	6376
819.341	6331
819.481	6338
819.622	6559
819.762	6730
819.903	6711
820.043	6623
820.184	6589
820.324	6582
820.465	6662
820.605	6631
820.746	6662
820.886	6544
821.026	6673
821.167	6703
821.307	6779
821.447	6772
821.588	6719
821.728	6631
821.868	6513
822.008	6410
822.149	6372
822.289	6448
822.429	6140
822.569	6117
822.709	6079
822.849	5954
822.99	5912
823.13	5935
823.27	5961
823.41	5748
823.55	5790
823.69	5790
823.83	5756
823.97	5703
824.11	5543
824.25	5570
824.389	5634
824.529	5627
824.669	5554
824.809	5642
824.949	5642
825.089	5657
825.228	5577
825.368	5398
825.508	5364
825.648	5353
825.787	5433
825.927	5440
826.067	5303
826.206	5258
826.346	5421
826.485	5429
826.625	5452
826.765	5562
826.904	5448
827.044	5288
827.183	5185
827.323	5155
827.462	5288
827.601	5159
827.741	5193
827.88	5216
828.02	5124
828.159	5197
828.298	5334
828.437	5357
828.577	5254
828.716	5490
828.855	5311
828.994	5151
829.134	5155
829.273	5239
829.412	5155
829.551	5098
829.69	5201
829.829	5227
829.968	5402
830.107	5208
830.246	5227
830.385	5174
830.524	5181
830.663	5105
830.802	4961
830.941	4911
831.08	4881
831.219	4965
831.357	4911
831.496	5151
831.635	4980
831.774	4873
831.913	4854
832.051	4725
832.19	4740
832.329	4835
832.467	4740
832.606	4618
832.744	4759
832.883	4740
833.022	4683
833.16	4797
833.299	4790
833.437	4847
833.576	4862
833.714	4877
833.852	4843
833.991	4858
834.129	5006
834.267	4938
834.406	4919
834.544	4980
834.682	4972
834.821	5041
834.959	5140
835.097	4957
835.235	5166
835.373	5136
835.511	5098
835.65	5083
835.788	5018
835.926	4919
836.064	4881
836.202	4987
836.34	5151
836.478	5254
836.615	5178
836.753	5269
836.891	5330
837.029	5284
837.167	5201
837.305	5075
837.443	5174
837.58	5094
837.718	5288
837.856	5242
837.993	5071
838.131	5277
838.269	5208
838.406	5178
838.544	5193
838.681	5071
838.819	5067
838.956	4946
839.094	4927
839.231	5010
839.369	5083
839.506	5410
839.643	5254
839.781	5094
839.918	5045
840.055	5098
840.193	5117
840.33	5178
840.467	5117
840.604	5189
840.742	5425
840.879	5052
841.016	5128
841.153	5136
841.29	5353
841.427	5372
841.564	5296
841.701	5341
841.838	5284
841.975	5223
842.112	5273
842.249	5166
842.385	5094
842.522	5391
842.659	5197
842.796	5166
842.933	5166
843.069	5151
843.206	5094
843.343	5330
843.479	5220
843.616	5170
843.752	5060
843.889	5033
844.025	5250
844.162	5022
844.298	5220
844.435	5075
844.571	5033
844.708	5185
844.844	5322
844.98	5288
845.117	5303
845.253	5136
845.389	5090
845.525	5151
845.661	5155
845.798	5056
845.934	5197
846.07	5037
846.206	5204
846.342	5246
846.478	5181
846.614	4999
846.75	4972
846.886	4961
847.022	5178
847.158	5022
847.294	5067
847.429	5098
847.565	5083
847.701	5334
847.837	4877
847.972	4816
848.108	4908
848.244	4942
848.379	4782
848.515	4733
848.65	4729
848.786	4763
848.921	4820
849.057	4854
849.192	4930
849.328	4843
849.463	4862
849.598	4839
849.734	4752
849.869	4778
850.004	4622
850.14	4672
850.275	4584
850.41	4516
850.545	4580
850.68	4618
850.815	4645
850.95	4721
851.085	4854
851.22	4759
851.355	4691
851.49	4618
851.625	4622
851.76	4634
851.895	4588
852.03	4519
852.165	4698
852.299	4672
852.434	4835
852.569	4763
852.703	4782
852.838	4885
852.973	4976
853.107	4866
853.242	4786
853.376	4622
853.511	4554
853.645	4622
853.78	4790
853.914	4653
854.048	4634
854.183	4634
854.317	4675
854.451	4847
854.585	4660
854.72	4596
854.854	4790
854.988	4588
855.122	4687
855.256	4538
855.39	4698
855.524	4816
855.658	4729
855.792	4717
855.926	4717
856.06	4752
856.194	4839
856.327	4710
856.461	4577
856.595	4641
856.729	4622
856.862	4736
856.996	4679
857.13	4717
857.263	4778
857.397	4805
857.53	4626
857.664	4736
857.797	4767
857.931	4782
858.064	4725
858.197	4793
858.331	4675
858.464	4588
858.597	4508
858.731	4649
858.864	4634
858.997	4577
859.13	4683
859.263	4675
859.396	4714
859.529	4611
859.662	4588
859.795	4565
859.928	4611
860.061	4763
860.194	4736
860.327	4596
860.46	4573
860.592	4687
860.725	4755
860.858	4710
860.99	4569
861.123	4489
861.256	4474
861.388	4584
861.521	5402
861.653	4535
861.786	4421
861.918	4424
862.05	4577
862.183	4546
862.315	4618
862.447	4714
862.58	4580
862.712	4402
862.844	4371
862.976	4470
863.108	4459
863.24	4911
863.372	4383
863.504	4424
863.636	4432
863.768	4466
863.9	4424
864.032	4386
864.164	4409
864.296	4485
864.428	4561
864.559	4580
864.691	4554
864.823	4516
864.954	4512
865.086	4516
865.217	4504
865.349	4459
865.48	4485
865.612	4481
865.743	4679
865.875	4470
866.006	4459
866.137	4447
866.269	4523
866.4	4417
866.531	4436
866.662	4398
866.793	4413
866.924	4478
867.055	4462
867.186	4478
867.317	4390
867.448	4390
867.579	4390
867.71	4417
867.841	4417
867.972	4459
868.103	4516
868.233	4413
868.364	4478
868.495	4542
868.625	4675
868.756	4702
868.886	4584
869.017	4634
869.147	4763
869.278	4831
869.408	4679
869.539	4664
869.669	4733
869.799	4660
869.929	4740
870.06	4736
870.19	4953
870.32	4942
870.45	4965
870.58	4976
870.71	5121
870.84	5166
870.97	4957
871.1	4900
871.23	5181
871.36	5162
871.489	5075
871.619	5094
871.749	5109
871.879	5128
872.008	5216
872.138	5098
872.267	4984
872.397	4885
872.526	4847
872.656	4729
872.785	4850
872.915	4942
873.044	5010
873.173	4961
873.303	4999
873.432	4961
873.561	4999
873.69	4915
873.819	4854
873.948	4957
874.077	4850
874.206	4790
874.335	4820
874.464	4980
874.593	5033
874.722	4987
874.851	5045
874.979	5079
875.108	5045
875.237	4965
875.365	4881
875.494	4930
875.623	4984
875.751	4839
875.88	4946
876.008	5048
876.136	5079
876.265	5235
876.393	5402
876.521	5231
876.65	5246
876.778	5159
876.906	5067
877.034	4984
877.162	5109
877.29	5056
877.418	5056
877.546	5075
877.674	5033
877.802	5018
877.93	5045
878.058	4908
878.185	4870
878.313	4976
878.441	5006
878.568	4812
878.696	4892
878.824	4949
878.951	4965
879.079	5136
879.206	5315
879.333	5086
879.461	4972
879.588	5014
879.715	5121
879.842	5235
879.97	4999
880.097	4801
880.224	4733
880.351	4805
880.478	4843
880.605	4797
880.732	4820
880.859	5094
880.986	4858
881.112	4896
881.239	4801
881.366	4653
881.493	4592
881.619	4622
881.746	4630
881.872	4622
881.999	4565
882.125	4725
882.252	4782
882.378	4843
882.505	4984
882.631	4786
882.757	4706
882.883	4733
883.01	4740
883.136	4668
883.262	4618
883.388	4622
883.514	4850
883.64	4900
883.766	4782
883.892	4717
884.018	4706
884.143	4904
884.269	4980
884.395	4702
884.52	4618
884.646	4687
884.772	4687
884.897	4561
885.023	4725
885.148	4782
885.274	4866
885.399	4786
885.524	4725
885.65	4672
885.775	4725
885.9	4759
886.025	4854
886.15	4831
886.275	4755
886.4	4622
886.525	4782
886.65	4702
886.775	4714
886.9	4942
887.025	5083
887.149	4759
887.274	4675
887.399	4573
887.523	4592
887.648	4641
887.773	4569
887.897	4858
888.021	4805
888.146	4675
888.27	4812
888.395	4938
888.519	4782
888.643	4812
888.767	4824
888.891	4672
889.015	4607
889.139	4660
889.263	4577
889.387	4774
889.511	4900
889.635	4843
889.759	4649
889.883	4630
890.006	4797
890.13	4862
890.254	4577
890.377	4664
890.501	4558
890.624	4519
890.748	4649
890.871	4523
890.995	4443
891.118	4360
891.241	4546
891.364	4542
891.488	4630
891.611	4516
891.734	4565
891.857	4603
891.98	4542
892.103	4649
892.226	4622
892.349	4573
892.471	4413
892.594	4630
892.717	4611
892.839	4615
892.962	4599
893.085	4626
893.207	4599
893.33	4459
893.452	4542
893.575	4672
893.697	4607
893.819	4816
893.941	4828
894.064	4778
894.186	4565
894.308	4584
894.43	4797
894.552	4828
894.674	4740
894.796	4580
894.918	4630
895.04	4561
895.161	4714
895.283	4698
895.405	4618
895.526	4668
895.648	4702
895.769	4740
895.891	4698
896.012	4755
896.134	4744
896.255	4675
896.376	4653
896.498	4645
896.619	4668
896.74	4645
896.861	4687
896.982	4938
897.103	5079
897.224	4839
897.345	4835
897.466	4717
897.587	4774
897.708	4877
897.828	4771
897.949	4683
898.07	4561
898.19	4687
898.311	4835
898.431	4687
898.552	4740
898.672	4805
898.792	4843
898.913	4752
899.033	4672
899.153	4523
899.273	4470
899.393	4531
899.513	4523
899.633	4554
899.753	4535
899.873	4558
899.993	4599
900.113	4535
900.232	4554
900.352	4542
900.472	4519
900.591	4383
900.711	4558
900.83	4462
900.95	4542
901.069	4717
901.189	4584
901.308	4398
901.427	4325
901.546	4394
901.665	4493
901.784	4531
901.904	4398
902.023	4356
902.141	4238
902.26	4185
902.379	4325
902.498	4261
902.617	4227
902.735	4367
902.854	4402
902.973	4421
903.091	4223
903.21	4291
903.328	4356
903.446	4280
903.565	4249
903.683	4352
903.801	4287
903.919	4405
904.038	4497
904.156	4314
904.274	4424
904.392	4428
904.51	4424
904.627	4462
904.745	4603
904.863	4660
904.981	4363
905.098	4306
905.216	4352
905.334	4451
905.451	4455
905.569	4504
905.686	4538
905.803	4599
905.921	4413
906.038	4512
906.155	4508
906.272	4398
906.389	4466
906.506	4383
906.623	4417
906.74	4402
906.857	4299
906.974	4337
907.091	4580
907.208	4664
907.324	4607
907.441	4481
907.557	4371
907.674	4341
907.79	4367
907.907	4379
908.023	4512
908.139	4462
908.256	4436
908.372	4504
908.488	4455
908.604	4341
908.72	4348
908.836	4383
908.952	4398
909.068	4447
909.184	4580
909.3	4481
909.415	4565
909.531	4516
909.647	4356
909.762	4344
909.878	4356
909.993	4455
910.108	4436
910.224	4409
910.339	4538
910.454	4402
910.57	4352
910.685	4337
910.8	4683
910.915	4565
911.03	4485
911.145	4352
911.259	4348
911.374	4390
911.489	4325
911.604	4306
911.718	4128
911.833	4223
911.947	4074
912.062	4071
912.176	4261
912.291	4246
912.405	4284
912.519	4462
912.633	4478
912.748	4402
912.862	4322
912.976	4223
913.09	4109
913.204	4169
913.318	4284
913.431	4390
913.545	4375
913.659	4432
913.772	4341
913.886	4272
914	4219
914.113	4383
914.226	4413
914.34	4405
914.453	4287
914.566	4371
914.68	4318
914.793	4333
914.906	4158
915.019	4116
915.132	4105
915.245	4207
915.358	4249
915.47	4227
915.583	4314
915.696	4322
915.809	4436
915.921	4466
916.034	4249
916.146	4265
916.259	4249
916.371	4398
916.483	4390
916.595	4280
916.708	4344
916.82	4348
916.932	4306
917.044	4344
917.156	4333
917.268	4234
917.38	4242
917.491	4265
917.603	4287
917.715	4409
917.826	4447
917.938	4402
918.049	4242
918.161	4447
918.272	4569
918.384	4580
918.495	4478
918.606	4234
918.717	4276
918.828	4375
918.939	4394
919.05	4291
919.161	4322
919.272	4139
919.383	4242
919.494	4493
919.604	4660
919.715	4485
919.826	4386
919.936	4394
920.047	4535
920.157	4546
920.267	4698
920.378	4504
920.488	4500
920.598	4717
920.708	4873
920.818	4752
920.928	4736
921.038	4976
921.148	4847
921.258	4607
921.368	4573
921.477	4504
921.587	4485
921.697	4379
921.806	4550
921.916	4417
922.025	4310
922.134	4276
922.244	4246
922.353	4344
922.462	4211
922.571	4169
922.68	4025
922.789	3998
922.898	4044
923.007	4025
923.116	4109
923.224	4120
923.333	4109
923.442	4025
923.55	3987
923.659	4044
923.767	4093
923.876	4040
923.984	4131
924.092	3975
924.201	4124
924.309	4120
924.417	4116
924.525	4044
924.633	4116
924.741	4892
924.849	3926
924.956	4090
925.064	3956
925.172	3884
925.279	3987
925.387	4025
925.494	4048
925.602	4181
925.709	4219
925.816	4090
925.924	4143
926.031	4295
926.138	4223
926.245	4230
926.352	4097
926.459	4265
926.566	4318
926.673	4147
926.779	4101
926.886	4105
926.993	4021
927.099	3968
927.206	3949
927.312	3941
927.419	4078
927.525	4013
927.631	4090
927.737	3991
927.843	3964
927.95	3861
928.056	3934
928.162	4017
928.267	4055
928.373	4725
928.479	4135
928.585	3915
928.69	4021
928.796	4093
928.901	3991
929.007	3835
929.112	4032
929.218	3975
929.323	3972
929.428	3964
929.533	4169
929.638	3941
929.743	3930
929.848	4036
929.953	3975
930.058	3899
930.163	3774
930.267	3823
930.372	3960
930.477	3808
930.581	4036
930.685	3964
930.79	3827
930.894	3930
930.998	3911
931.103	4029
931.207	3724
931.311	3698
931.415	3728
931.519	3545
931.623	3538
