Data from test_V78500241_2721.txt Node
Date: Fri Mar 25 17:07:55 CST 2022
User: usil
Spectrometer: V785-0024
Trigger mode: 0
Integration Time (sec): 4.000000E-1
Scans to average: 1
Nonlinearity correction enabled: false
Boxcar width: 0
Storing dark spectrum: false
XAxis mode: Wavelengths
Number of Pixels in Spectrum: 1024
>>>>>Begin Spectral Data<<<<<
801.071	8001
801.214	8039
801.356	7963
801.499	7883
801.641	7833
801.783	7856
801.926	8012
802.068	7940
802.211	8092
802.353	7967
802.496	7845
802.638	7951
802.78	7970
802.923	8012
803.065	7833
803.208	7868
803.35	7967
803.492	8100
803.635	8210
803.777	8050
803.919	8164
804.061	8537
804.204	8164
804.346	8008
804.488	8001
804.63	8142
804.773	8058
804.915	8062
805.057	8286
805.199	8157
805.341	8233
805.483	8279
805.626	8218
805.768	8134
805.91	8233
806.052	8279
806.194	8111
806.336	8313
806.478	8119
806.62	8138
806.762	8164
806.904	8256
807.046	8469
807.188	8374
807.33	8267
807.472	8339
807.614	8176
807.756	8157
807.898	8035
808.04	7898
808.182	8008
808.324	7944
808.465	7947
808.607	8134
808.749	8168
808.891	8275
809.033	8385
809.174	8218
809.316	8073
809.458	8077
809.6	8043
809.741	8043
809.883	8039
810.025	8172
810.166	8065
810.308	8043
810.45	8088
810.591	7890
810.733	7704
810.875	7723
811.016	7616
811.158	7487
811.299	7601
811.441	7715
811.582	7651
811.724	7578
811.865	7590
812.007	7582
812.148	7624
812.29	7677
812.431	7757
812.573	7864
812.714	8020
812.855	8138
812.997	8225
813.138	8343
813.279	8191
813.421	8149
813.562	8054
813.703	7807
813.845	7837
813.986	7468
814.127	7266
814.268	7312
814.41	7255
814.551	7164
814.692	7171
814.833	7118
814.974	7168
815.115	7076
815.256	7004
815.397	6947
815.539	6981
815.68	6848
815.821	6795
815.962	6943
816.103	6833
816.244	6768
816.385	6620
816.526	6604
816.666	6544
816.807	6353
816.948	6399
817.089	6498
817.23	6464
817.371	6452
817.512	6426
817.653	6384
817.793	6414
817.934	6422
818.075	6460
818.216	6410
818.356	6391
818.497	6201
818.638	6129
818.778	6136
818.919	6117
819.06	6152
819.2	6331
819.341	6281
819.481	6357
819.622	6528
819.762	6760
819.903	6658
820.043	6597
820.184	6582
820.324	6597
820.465	6726
820.605	6684
820.746	6662
820.886	6509
821.026	6620
821.167	6715
821.307	6779
821.447	6779
821.588	6665
821.728	6585
821.868	6483
822.008	6327
822.149	6357
822.289	6365
822.429	6155
822.569	6087
822.709	6117
822.849	5977
822.99	5935
823.13	5927
823.27	5942
823.41	5863
823.55	5794
823.69	5783
823.83	5737
823.97	5688
824.11	5505
824.25	5524
824.389	5554
824.529	5585
824.669	5539
824.809	5646
824.949	5665
825.089	5623
825.228	5596
825.368	5379
825.508	5398
825.648	5353
825.787	5349
825.927	5322
826.067	5326
826.206	5284
826.346	5410
826.485	5379
826.625	5414
826.765	5566
826.904	5490
827.044	5246
827.183	5197
827.323	5151
827.462	5204
827.601	5193
827.741	5212
827.88	5231
828.02	5124
828.159	5227
828.298	5357
828.437	5318
828.577	5250
828.716	5455
828.855	5322
828.994	5166
829.134	5162
829.273	5201
829.412	5136
829.551	5143
829.69	5216
829.829	5227
829.968	5376
830.107	5250
830.246	5311
830.385	5197
830.524	5113
830.663	5067
830.802	4957
830.941	4904
831.08	4885
831.219	4976
831.357	5006
831.496	5151
831.635	4877
831.774	4877
831.913	4835
832.051	4717
832.19	4752
832.329	4862
832.467	4717
832.606	4660
832.744	4717
832.883	4733
833.022	4698
833.16	4782
833.299	4816
833.437	4854
833.576	4820
833.714	4885
833.852	4885
833.991	4881
834.129	5003
834.267	4987
834.406	4919
834.544	4984
834.682	4946
834.821	4968
834.959	5174
835.097	4984
835.235	5098
835.373	5094
835.511	5090
835.65	5022
835.788	5079
835.926	4877
836.064	4877
836.202	4862
836.34	5159
836.478	5220
836.615	5162
836.753	5151
836.891	5303
837.029	5246
837.167	5212
837.305	5162
837.443	5105
837.58	5113
837.718	5299
837.856	5197
837.993	5132
838.131	5284
838.269	5242
838.406	5162
838.544	5174
838.681	5022
838.819	5010
838.956	4911
839.094	4892
839.231	4968
839.369	5132
839.506	5463
839.643	5216
839.781	5056
839.918	4976
840.055	5132
840.193	5041
840.33	5079
840.467	5090
840.604	5197
840.742	5452
840.879	5098
841.016	5098
841.153	5193
841.29	5372
841.427	5337
841.564	5315
841.701	5326
841.838	5258
841.975	5242
842.112	5280
842.249	5113
842.385	5090
842.522	5334
842.659	5124
842.796	5094
842.933	5189
843.069	5147
843.206	5155
843.343	5280
843.479	5246
843.616	5265
843.752	5037
843.889	5022
844.025	5185
844.162	5003
844.298	5189
844.435	5079
844.571	5022
844.708	5216
844.844	5303
844.98	5341
845.117	5269
845.253	5147
845.389	5071
845.525	5147
845.661	5094
845.798	5029
845.934	5098
846.07	5037
846.206	5235
846.342	5277
846.478	5174
846.614	5079
846.75	4991
846.886	4942
847.022	5136
847.158	5025
847.294	5033
847.429	5121
847.565	5071
847.701	5345
847.837	4873
847.972	4812
848.108	4972
848.244	4919
848.379	4797
848.515	4702
848.65	4740
848.786	4759
848.921	4763
849.057	4904
849.192	4896
849.328	4900
849.463	4839
849.598	4786
849.734	4748
849.869	4664
850.004	4645
850.14	4679
850.275	4675
850.41	4516
850.545	4558
850.68	4622
850.815	4668
850.95	4630
851.085	4816
851.22	4702
851.355	4653
851.49	4634
851.625	4626
851.76	4618
851.895	4573
852.03	4542
852.165	4664
852.299	4710
852.434	4805
852.569	4714
852.703	4759
852.838	4820
852.973	4866
853.107	4896
853.242	4721
853.376	4618
853.511	4561
853.645	4626
853.78	4782
853.914	4710
854.048	4668
854.183	4649
854.317	4710
854.451	4820
854.585	4626
854.72	4668
854.854	4793
854.988	4592
855.122	4656
855.256	4531
855.39	4679
855.524	4771
855.658	4717
855.792	4725
855.926	4687
856.06	4721
856.194	4771
856.327	4706
856.461	4641
856.595	4577
856.729	4637
856.862	4702
856.996	4675
857.13	4801
857.263	4759
857.397	4793
857.53	4675
857.664	4752
857.797	4717
857.931	4771
858.064	4725
858.197	4717
858.331	4641
858.464	4630
858.597	4565
858.731	4637
858.864	4607
858.997	4565
859.13	4694
859.263	4607
859.396	4660
859.529	4565
859.662	4622
859.795	4550
859.928	4630
860.061	4763
860.194	4786
860.327	4603
860.46	4577
860.592	4706
860.725	4717
860.858	4736
860.99	4569
861.123	4535
861.256	4542
861.388	4561
861.521	5299
861.653	4489
861.786	4447
861.918	4478
862.05	4508
862.183	4542
862.315	4634
862.447	4672
862.58	4573
862.712	4398
862.844	4344
862.976	4512
863.108	4497
863.24	4824
863.372	4367
863.504	4398
863.636	4367
863.768	4474
863.9	4447
864.032	4413
864.164	4386
864.296	4455
864.428	4538
864.559	4596
864.691	4508
864.823	4546
864.954	4504
865.086	4493
865.217	4466
865.349	4455
865.48	4455
865.612	4459
865.743	4672
865.875	4470
866.006	4493
866.137	4489
866.269	4470
866.4	4451
866.531	4478
866.662	4371
866.793	4428
866.924	4447
867.055	4451
867.186	4481
867.317	4409
867.448	4356
867.579	4409
867.71	4413
867.841	4390
867.972	4462
868.103	4466
868.233	4489
868.364	4428
868.495	4508
868.625	4687
868.756	4752
868.886	4542
869.017	4592
869.147	4793
869.278	4778
869.408	4645
869.539	4634
869.669	4717
869.799	4672
869.929	4748
870.06	4740
870.19	4946
870.32	4850
870.45	4946
870.58	5060
870.71	5109
870.84	5060
870.97	4911
871.1	4919
871.23	5140
871.36	5174
871.489	5018
871.619	5075
871.749	5102
871.879	5086
872.008	5132
872.138	5056
872.267	4923
872.397	4824
872.526	4820
872.656	4748
872.785	4858
872.915	4972
873.044	5037
873.173	4942
873.303	4908
873.432	4927
873.561	4961
873.69	4900
873.819	4816
873.948	4934
874.077	4797
874.206	4774
874.335	4801
874.464	4927
874.593	5090
874.722	4923
874.851	5098
874.979	5083
875.108	5086
875.237	4915
875.365	4892
875.494	4900
875.623	4957
875.751	4839
875.88	4892
876.008	4968
876.136	5033
876.265	5235
876.393	5414
876.521	5280
876.65	5227
876.778	5155
876.906	5090
877.034	5018
877.162	5022
877.29	5003
877.418	5071
877.546	5045
877.674	5033
877.802	5075
877.93	4980
878.058	4938
878.185	4889
878.313	4972
878.441	5010
878.568	4778
878.696	4877
878.824	4949
878.951	4961
879.079	5075
879.206	5277
879.333	5147
879.461	4999
879.588	4942
879.715	5109
879.842	5216
879.97	5064
880.097	4801
880.224	4744
880.351	4812
880.478	4866
880.605	4771
880.732	4782
880.859	5064
880.986	4927
881.112	4858
881.239	4816
881.366	4683
881.493	4615
881.619	4584
881.746	4634
881.872	4615
881.999	4611
882.125	4645
882.252	4797
882.378	4793
882.505	4908
882.631	4774
882.757	4611
882.883	4778
883.01	4755
883.136	4675
883.262	4634
883.388	4569
883.514	4782
883.64	4870
883.766	4748
883.892	4660
884.018	4672
884.143	4930
884.269	5041
884.395	4675
884.52	4641
884.646	4615
884.772	4622
884.897	4561
885.023	4641
885.148	4805
885.274	4843
885.399	4839
885.524	4740
885.65	4672
885.775	4752
885.9	4721
886.025	4839
886.15	4809
886.275	4717
886.4	4660
886.525	4717
886.65	4698
886.775	4729
886.9	4850
887.025	5010
887.149	4790
887.274	4656
887.399	4611
887.523	4603
887.648	4569
887.773	4550
887.897	4801
888.021	4774
888.146	4687
888.27	4843
888.395	4927
888.519	4759
888.643	4752
888.767	4870
888.891	4691
889.015	4599
889.139	4668
889.263	4599
889.387	4759
889.511	4862
889.635	4805
889.759	4668
889.883	4679
890.006	4706
890.13	4786
890.254	4618
890.377	4645
890.501	4550
890.624	4504
890.748	4656
890.871	4500
890.995	4440
891.118	4379
891.241	4527
891.364	4519
891.488	4626
891.611	4466
891.734	4535
891.857	4592
891.98	4584
892.103	4664
892.226	4569
892.349	4535
892.471	4424
892.594	4546
892.717	4603
892.839	4561
892.962	4603
893.085	4634
893.207	4569
893.33	4447
893.452	4550
893.575	4653
893.697	4554
893.819	4782
893.941	4858
894.064	4801
894.186	4554
894.308	4596
894.43	4717
894.552	4843
894.674	4744
894.796	4573
894.918	4580
895.04	4565
895.161	4683
895.283	4660
895.405	4577
895.526	4630
895.648	4660
895.769	4675
895.891	4710
896.012	4805
896.134	4721
896.255	4653
896.376	4618
896.498	4588
896.619	4717
896.74	4668
896.861	4634
896.982	4866
897.103	5113
897.224	4843
897.345	4767
897.466	4672
897.587	4706
897.708	4839
897.828	4744
897.949	4630
898.07	4550
898.19	4592
898.311	4835
898.431	4672
898.552	4786
898.672	4824
898.792	4793
898.913	4733
899.033	4679
899.153	4519
899.273	4447
899.393	4508
899.513	4512
899.633	4592
899.753	4504
899.873	4493
899.993	4550
900.113	4558
900.232	4622
900.352	4519
900.472	4512
900.591	4375
900.711	4447
900.83	4447
900.95	4580
901.069	4714
901.189	4550
901.308	4394
901.427	4287
901.546	4375
901.665	4478
901.784	4512
901.904	4398
902.023	4280
902.141	4192
902.26	4150
902.379	4265
902.498	4257
902.617	4261
902.735	4329
902.854	4356
902.973	4314
903.091	4257
903.21	4238
903.328	4310
903.446	4261
903.565	4257
903.683	4333
903.801	4265
903.919	4398
904.038	4417
904.156	4344
904.274	4451
904.392	4421
904.51	4428
904.627	4497
904.745	4580
904.863	4634
904.981	4413
905.098	4295
905.216	4417
905.334	4451
905.451	4390
905.569	4443
905.686	4580
905.803	4577
905.921	4409
906.038	4519
906.155	4474
906.272	4363
906.389	4432
906.506	4337
906.623	4394
906.74	4386
906.857	4303
906.974	4356
907.091	4611
907.208	4649
907.324	4554
907.441	4527
907.557	4360
907.674	4375
907.79	4318
907.907	4440
908.023	4489
908.139	4466
908.256	4440
908.372	4470
908.488	4447
908.604	4344
908.72	4371
908.836	4383
908.952	4360
909.068	4405
909.184	4561
909.3	4500
909.415	4584
909.531	4531
909.647	4363
909.762	4329
909.878	4383
909.993	4428
910.108	4413
910.224	4405
910.339	4527
910.454	4360
910.57	4337
910.685	4310
910.8	4687
910.915	4599
911.03	4481
911.145	4379
911.259	4360
911.374	4322
911.489	4310
911.604	4303
911.718	4181
911.833	4188
911.947	4078
912.062	4021
912.176	4185
912.291	4204
912.405	4280
912.519	4527
912.633	4523
912.748	4363
912.862	4375
912.976	4207
913.09	4131
913.204	4166
913.318	4253
913.431	4424
913.545	4325
913.659	4409
913.772	4337
913.886	4257
914	4219
914.113	4386
914.226	4383
914.34	4443
914.453	4249
914.566	4379
914.68	4303
914.793	4306
914.906	4143
915.019	4128
915.132	4105
915.245	4188
915.358	4238
915.47	4253
915.583	4272
915.696	4333
915.809	4379
915.921	4451
916.034	4287
916.146	4234
916.259	4173
916.371	4352
916.483	4375
916.595	4265
916.708	4325
916.82	4276
916.932	4325
917.044	4295
917.156	4341
917.268	4230
917.38	4284
917.491	4265
917.603	4337
917.715	4398
917.826	4470
917.938	4367
918.049	4295
918.161	4402
918.272	4573
918.384	4561
918.495	4447
918.606	4287
918.717	4287
918.828	4352
918.939	4337
919.05	4230
919.161	4348
919.272	4097
919.383	4227
919.494	4447
919.604	4626
919.715	4428
919.826	4344
919.936	4455
920.047	4550
920.157	4569
920.267	4706
920.378	4561
920.488	4497
920.598	4748
920.708	4900
920.818	4710
920.928	4778
921.038	4934
921.148	4949
921.258	4649
921.368	4584
921.477	4481
921.587	4485
921.697	4360
921.806	4542
921.916	4523
922.025	4318
922.134	4287
922.244	4268
922.353	4299
922.462	4219
922.571	4147
922.68	4010
922.789	4017
922.898	4017
923.007	3960
923.116	4101
923.224	4101
923.333	4040
923.442	3968
923.55	3987
923.659	4006
923.767	4120
923.876	4086
923.984	4101
924.092	3960
924.201	4090
924.309	4112
924.417	4124
924.525	4078
924.633	4090
924.741	5033
924.849	3907
924.956	4150
925.064	3945
925.172	3892
925.279	3972
925.387	4032
925.494	4036
925.602	4234
925.709	4135
925.816	4013
925.924	4124
926.031	4242
926.138	4166
926.245	4185
926.352	4101
926.459	4284
926.566	4253
926.673	4166
926.779	4097
926.886	4078
926.993	3964
927.099	4029
927.206	3915
927.312	3991
927.419	4048
927.525	4017
927.631	4086
927.737	4006
927.843	3960
927.95	3850
928.056	3907
928.162	3991
928.267	4082
928.373	4603
928.479	4048
928.585	3888
928.69	4025
928.796	4055
928.901	3964
929.007	3857
929.112	4010
929.218	3972
929.323	3915
929.428	3949
929.533	4090
929.638	3915
929.743	3956
929.848	4044
929.953	4029
930.058	3915
930.163	3755
930.267	3854
930.372	3987
930.477	3835
930.581	4124
930.685	3945
930.79	3819
930.894	3911
930.998	3850
931.103	4044
931.207	3705
931.311	3732
931.415	3701
931.519	3507
931.623	3564
