Data from test_V78500241_586.txt Node
Date: Fri Mar 25 16:53:04 CST 2022
User: usil
Spectrometer: V785-0024
Trigger mode: 0
Integration Time (sec): 4.000000E-1
Scans to average: 1
Nonlinearity correction enabled: false
Boxcar width: 0
Storing dark spectrum: false
XAxis mode: Wavelengths
Number of Pixels in Spectrum: 1024
>>>>>Begin Spectral Data<<<<<
801.071	8058
801.214	7970
801.356	7875
801.499	7852
801.641	7849
801.783	7845
801.926	7993
802.068	7993
802.211	8016
802.353	8008
802.496	7890
802.638	7898
802.78	8005
802.923	7830
803.065	7860
803.208	7807
803.35	7986
803.492	8039
803.635	8130
803.777	7967
803.919	8077
804.061	8389
804.204	8123
804.346	8005
804.488	7928
804.63	8100
804.773	7989
804.915	8065
805.057	8244
805.199	8092
805.341	8237
805.483	8267
805.626	8202
805.768	8081
805.91	8176
806.052	8180
806.194	8111
806.336	8313
806.478	8161
806.62	8100
806.762	8100
806.904	8237
807.046	8457
807.188	8286
807.33	8221
807.472	8248
807.614	8069
807.756	8134
807.898	8035
808.04	7822
808.182	7917
808.324	7883
808.465	7909
808.607	8012
808.749	8107
808.891	8256
809.033	8305
809.174	8218
809.316	8020
809.458	8035
809.6	7986
809.741	8039
809.883	8043
810.025	8031
810.166	8046
810.308	8062
810.45	7967
810.591	7906
810.733	7757
810.875	7681
811.016	7518
811.158	7499
811.299	7552
811.441	7677
811.582	7601
811.724	7601
811.865	7514
812.007	7575
812.148	7609
812.29	7594
812.431	7788
812.573	7852
812.714	8020
812.855	8069
812.997	8210
813.138	8427
813.279	8172
813.421	8073
813.562	8077
813.703	7936
813.845	7830
813.986	7460
814.127	7247
814.268	7324
814.41	7225
814.551	7084
814.692	7164
814.833	7031
814.974	7080
815.115	7118
815.256	7004
815.397	6924
815.539	7015
815.68	6814
815.821	6821
815.962	6890
816.103	6875
816.244	6745
816.385	6597
816.526	6585
816.666	6494
816.807	6258
816.948	6467
817.089	6460
817.23	6407
817.371	6361
817.512	6403
817.653	6361
817.793	6323
817.934	6407
818.075	6441
818.216	6429
818.356	6395
818.497	6216
818.638	6121
818.778	6136
818.919	6068
819.06	6110
819.2	6342
819.341	6323
819.481	6365
819.622	6540
819.762	6779
819.903	6703
820.043	6601
820.184	6555
820.324	6620
820.465	6696
820.605	6635
820.746	6521
820.886	6460
821.026	6654
821.167	6677
821.307	6802
821.447	6711
821.588	6623
821.728	6544
821.868	6426
822.008	6262
822.149	6380
822.289	6334
822.429	6133
822.569	6083
822.709	6114
822.849	5935
822.99	5870
823.13	5931
823.27	5916
823.41	5752
823.55	5771
823.69	5745
823.83	5798
823.97	5615
824.11	5509
824.25	5509
824.389	5501
824.529	5547
824.669	5497
824.809	5615
824.949	5688
825.089	5585
825.228	5554
825.368	5376
825.508	5334
825.648	5353
825.787	5387
825.927	5349
826.067	5330
826.206	5284
826.346	5364
826.485	5391
826.625	5372
826.765	5516
826.904	5421
827.044	5216
827.183	5151
827.323	5113
827.462	5254
827.601	5143
827.741	5155
827.88	5242
828.02	5090
828.159	5216
828.298	5269
828.437	5406
828.577	5227
828.716	5490
828.855	5322
828.994	5155
829.134	5113
829.273	5136
829.412	5132
829.551	5098
829.69	5132
829.829	5231
829.968	5376
830.107	5242
830.246	5265
830.385	5109
830.524	5140
830.663	5060
830.802	4938
830.941	4889
831.08	4835
831.219	4980
831.357	4961
831.496	5083
831.635	4911
831.774	4816
831.913	4847
832.051	4717
832.19	4725
832.329	4774
832.467	4706
832.606	4622
832.744	4691
832.883	4725
833.022	4668
833.16	4767
833.299	4778
833.437	4831
833.576	4843
833.714	4805
833.852	4889
833.991	4847
834.129	4946
834.267	4984
834.406	4866
834.544	4949
834.682	4968
834.821	4904
834.959	5155
835.097	4991
835.235	5102
835.373	5060
835.511	5128
835.65	5090
835.788	5079
835.926	4870
836.064	4870
836.202	4911
836.34	5117
836.478	5235
836.615	5113
836.753	5208
836.891	5311
837.029	5273
837.167	5193
837.305	5166
837.443	5140
837.58	5109
837.718	5250
837.856	5197
837.993	5151
838.131	5254
838.269	5197
838.406	5216
838.544	5189
838.681	5010
838.819	4976
838.956	4866
839.094	4938
839.231	4938
839.369	5086
839.506	5368
839.643	5277
839.781	5060
839.918	5025
840.055	5109
840.193	5048
840.33	5048
840.467	5109
840.604	5170
840.742	5444
840.879	5041
841.016	5033
841.153	5102
841.29	5402
841.427	5322
841.564	5341
841.701	5383
841.838	5254
841.975	5269
842.112	5273
842.249	5170
842.385	5033
842.522	5349
842.659	5159
842.796	5124
842.933	5216
843.069	5102
843.206	5124
843.343	5265
843.479	5220
843.616	5322
843.752	5010
843.889	5010
844.025	5181
844.162	4999
844.298	5181
844.435	5094
844.571	5033
844.708	5181
844.844	5360
844.98	5326
845.117	5318
845.253	5098
845.389	5098
845.525	5181
845.661	5151
845.798	5083
845.934	5136
846.07	5102
846.206	5166
846.342	5235
846.478	5201
846.614	5006
846.75	5010
846.886	4904
847.022	5147
847.158	5018
847.294	5006
847.429	5109
847.565	5060
847.701	5315
847.837	4858
847.972	4801
848.108	4968
848.244	4942
848.379	4733
848.515	4782
848.65	4691
848.786	4736
848.921	4748
849.057	4854
849.192	4942
849.328	4850
849.463	4854
849.598	4793
849.734	4721
849.869	4694
850.004	4653
850.14	4672
850.275	4630
850.41	4538
850.545	4554
850.68	4603
850.815	4645
850.95	4649
851.085	4820
851.22	4809
851.355	4626
851.49	4637
851.625	4584
851.76	4615
851.895	4558
852.03	4531
852.165	4672
852.299	4706
852.434	4816
852.569	4714
852.703	4782
852.838	4820
852.973	4942
853.107	4927
853.242	4748
853.376	4675
853.511	4546
853.645	4637
853.78	4809
853.914	4694
854.048	4645
854.183	4656
854.317	4714
854.451	4850
854.585	4660
854.72	4653
854.854	4759
854.988	4599
855.122	4630
855.256	4508
855.39	4656
855.524	4763
855.658	4725
855.792	4675
855.926	4725
856.06	4752
856.194	4812
856.327	4694
856.461	4637
856.595	4615
856.729	4603
856.862	4752
856.996	4721
857.13	4736
857.263	4790
857.397	4816
857.53	4672
857.664	4729
857.797	4771
857.931	4774
858.064	4710
858.197	4736
858.331	4618
858.464	4637
858.597	4519
858.731	4622
858.864	4672
858.997	4664
859.13	4653
859.263	4683
859.396	4702
859.529	4599
859.662	4569
859.795	4523
859.928	4626
860.061	4755
860.194	4752
860.327	4649
860.46	4504
860.592	4717
860.725	4660
860.858	4683
860.99	4584
861.123	4516
861.256	4504
861.388	4622
861.521	5357
861.653	4504
861.786	4470
861.918	4440
862.05	4481
862.183	4554
862.315	4618
862.447	4660
862.58	4512
862.712	4379
862.844	4341
862.976	4436
863.108	4428
863.24	4820
863.372	4360
863.504	4432
863.636	4402
863.768	4466
863.9	4455
864.032	4405
864.164	4398
864.296	4447
864.428	4550
864.559	4569
864.691	4535
864.823	4569
864.954	4478
865.086	4508
865.217	4489
865.349	4424
865.48	4451
865.612	4455
865.743	4588
865.875	4497
866.006	4402
866.137	4470
866.269	4462
866.4	4447
866.531	4424
866.662	4436
866.793	4409
866.924	4443
867.055	4523
867.186	4466
867.317	4402
867.448	4375
867.579	4383
867.71	4440
867.841	4356
867.972	4462
868.103	4451
868.233	4409
868.364	4421
868.495	4447
868.625	4653
868.756	4759
868.886	4569
869.017	4611
869.147	4755
869.278	4767
869.408	4675
869.539	4653
869.669	4710
869.799	4649
869.929	4721
870.06	4698
870.19	4953
870.32	4885
870.45	4892
870.58	5067
870.71	5071
870.84	5121
870.97	4984
871.1	4923
871.23	5174
871.36	5128
871.489	5041
871.619	5029
871.749	5079
871.879	5060
872.008	5193
872.138	4999
872.267	4957
872.397	4790
872.526	4862
872.656	4679
872.785	4847
872.915	4938
873.044	5102
873.173	4991
873.303	4965
873.432	4938
873.561	5014
873.69	4850
873.819	4873
873.948	4919
874.077	4839
874.206	4748
874.335	4858
874.464	4976
874.593	5052
874.722	4957
874.851	5067
874.979	5090
875.108	5079
875.237	4923
875.365	4900
875.494	4900
875.623	4987
875.751	4809
875.88	4889
876.008	4980
876.136	4995
876.265	5162
876.393	5353
876.521	5246
876.65	5201
876.778	5159
876.906	5006
877.034	5037
877.162	5064
877.29	4965
877.418	5067
877.546	5022
877.674	5037
877.802	5018
877.93	5018
878.058	4938
878.185	4870
878.313	4984
878.441	4965
878.568	4782
878.696	4900
878.824	4934
878.951	5003
879.079	5075
879.206	5303
879.333	5102
879.461	4953
879.588	5045
879.715	5113
879.842	5193
879.97	5022
880.097	4767
880.224	4755
880.351	4793
880.478	4873
880.605	4831
880.732	4778
880.859	5113
880.986	4881
881.112	4911
881.239	4752
881.366	4626
881.493	4599
881.619	4603
881.746	4618
881.872	4672
881.999	4641
882.125	4672
882.252	4752
882.378	4816
882.505	4942
882.631	4816
882.757	4656
882.883	4740
883.01	4786
883.136	4660
883.262	4599
883.388	4622
883.514	4828
883.64	4873
883.766	4763
883.892	4634
884.018	4698
884.143	4923
884.269	5018
884.395	4702
884.52	4599
884.646	4656
884.772	4554
884.897	4588
885.023	4679
885.148	4771
885.274	4862
885.399	4839
885.524	4748
885.65	4702
885.775	4729
885.9	4714
886.025	4809
886.15	4771
886.275	4687
886.4	4641
886.525	4694
886.65	4668
886.775	4763
886.9	4919
887.025	5003
887.149	4828
887.274	4653
887.399	4580
887.523	4622
887.648	4596
887.773	4573
887.897	4702
888.021	4782
888.146	4694
888.27	4805
888.395	4911
888.519	4816
888.643	4824
888.767	4805
888.891	4691
889.015	4649
889.139	4664
889.263	4584
889.387	4752
889.511	4870
889.635	4839
889.759	4611
889.883	4622
890.006	4702
890.13	4835
890.254	4592
890.377	4687
890.501	4489
890.624	4550
890.748	4687
890.871	4508
890.995	4398
891.118	4333
891.241	4455
891.364	4523
891.488	4679
891.611	4508
891.734	4535
891.857	4577
891.98	4542
892.103	4645
892.226	4618
892.349	4478
892.471	4459
892.594	4516
892.717	4615
892.839	4561
892.962	4573
893.085	4675
893.207	4592
893.33	4424
893.452	4527
893.575	4641
893.697	4599
893.819	4790
893.941	4793
894.064	4771
894.186	4592
894.308	4565
894.43	4683
894.552	4797
894.674	4687
894.796	4554
894.918	4588
895.04	4573
895.161	4733
895.283	4622
895.405	4531
895.526	4637
895.648	4710
895.769	4656
895.891	4687
896.012	4721
896.134	4721
896.255	4664
896.376	4637
896.498	4611
896.619	4668
896.74	4611
896.861	4664
896.982	4915
897.103	5094
897.224	4839
897.345	4710
897.466	4641
897.587	4763
897.708	4843
897.828	4744
897.949	4664
898.07	4607
898.19	4660
898.311	4767
898.431	4683
898.552	4702
898.672	4793
898.792	4797
898.913	4740
899.033	4622
899.153	4512
899.273	4443
899.393	4440
899.513	4497
899.633	4569
899.753	4569
899.873	4561
899.993	4577
900.113	4523
900.232	4588
900.352	4577
900.472	4504
900.591	4402
900.711	4462
900.83	4417
900.95	4634
901.069	4714
901.189	4538
901.308	4371
901.427	4265
901.546	4363
901.665	4455
901.784	4481
901.904	4394
902.023	4344
902.141	4207
902.26	4227
902.379	4314
902.498	4249
902.617	4211
902.735	4379
902.854	4363
902.973	4360
903.091	4181
903.21	4215
903.328	4291
903.446	4230
903.565	4303
903.683	4375
903.801	4325
903.919	4436
904.038	4497
904.156	4291
904.274	4417
904.392	4386
904.51	4424
904.627	4459
904.745	4531
904.863	4615
904.981	4383
905.098	4303
905.216	4348
905.334	4424
905.451	4436
905.569	4440
905.686	4542
905.803	4573
905.921	4398
906.038	4531
906.155	4516
906.272	4352
906.389	4432
906.506	4344
906.623	4383
906.74	4421
906.857	4261
906.974	4344
907.091	4565
907.208	4691
907.324	4634
907.441	4462
907.557	4348
907.674	4329
907.79	4306
907.907	4417
908.023	4489
908.139	4497
908.256	4409
908.372	4432
908.488	4451
908.604	4341
908.72	4314
908.836	4417
908.952	4402
909.068	4459
909.184	4573
909.3	4500
909.415	4550
909.531	4565
909.647	4341
909.762	4417
909.878	4299
909.993	4436
910.108	4428
910.224	4375
910.339	4485
910.454	4390
910.57	4375
910.685	4306
910.8	4664
910.915	4554
911.03	4485
911.145	4314
911.259	4322
911.374	4386
911.489	4287
911.604	4238
911.718	4147
911.833	4204
911.947	4093
912.062	4036
912.176	4196
912.291	4246
912.405	4207
912.519	4485
912.633	4508
912.748	4375
912.862	4329
912.976	4257
913.09	4074
913.204	4215
913.318	4227
913.431	4333
913.545	4379
913.659	4451
913.772	4356
913.886	4253
914	4181
914.113	4398
914.226	4485
914.34	4356
914.453	4261
914.566	4421
914.68	4287
914.793	4325
914.906	4143
915.019	4177
915.132	4067
915.245	4177
915.358	4230
915.47	4234
915.583	4249
915.696	4310
915.809	4379
915.921	4383
916.034	4227
916.146	4215
916.259	4242
916.371	4413
916.483	4390
916.595	4215
916.708	4295
916.82	4348
916.932	4360
917.044	4341
917.156	4276
917.268	4249
917.38	4287
917.491	4265
917.603	4371
917.715	4455
917.826	4421
917.938	4333
918.049	4242
918.161	4379
918.272	4512
918.384	4546
918.495	4512
918.606	4265
918.717	4238
918.828	4318
918.939	4348
919.05	4215
919.161	4306
919.272	4162
919.383	4249
919.494	4417
919.604	4603
919.715	4440
919.826	4356
919.936	4379
920.047	4554
920.157	4489
920.267	4668
920.378	4508
920.488	4504
920.598	4710
920.708	4828
920.818	4759
920.928	4729
921.038	4957
921.148	4911
921.258	4584
921.368	4565
921.477	4485
921.587	4451
921.697	4371
921.806	4554
921.916	4459
922.025	4249
922.134	4284
922.244	4207
922.353	4360
922.462	4200
922.571	4143
922.68	4059
922.789	3994
922.898	4063
923.007	4006
923.116	4112
923.224	4059
923.333	4071
923.442	3983
923.55	3926
923.659	3979
923.767	4097
923.876	4010
923.984	4067
924.092	4013
924.201	4059
924.309	4078
924.417	4101
924.525	4071
924.633	4097
924.741	5067
924.849	3937
924.956	4093
925.064	3956
925.172	3930
925.279	3937
925.387	4040
925.494	4097
925.602	4276
925.709	4173
925.816	4025
925.924	4109
926.031	4215
926.138	4147
926.245	4257
926.352	4048
926.459	4219
926.566	4318
926.673	4139
926.779	4078
926.886	4120
926.993	3983
927.099	3941
927.206	3911
927.312	3934
927.419	4036
927.525	4017
927.631	4086
927.737	3956
927.843	3937
927.95	3812
928.056	3975
928.162	3968
928.267	4109
928.373	4706
928.479	4090
928.585	3869
928.69	3979
928.796	4051
928.901	3972
929.007	3831
929.112	3956
929.218	3991
929.323	3975
929.428	3987
929.533	4101
929.638	3934
929.743	3975
929.848	4029
929.953	4032
930.058	3922
930.163	3808
930.267	3857
930.372	3960
930.477	3804
930.581	4093
930.685	3937
930.79	3827
930.894	3922
930.998	3899
931.103	4029
931.207	3690
931.311	3728
931.415	3705
931.519	3496
931.623	3584
