Data from test_V78500241_1008.txt Node
Date: Fri Mar 25 16:56:00 CST 2022
User: usil
Spectrometer: V785-0024
Trigger mode: 0
Integration Time (sec): 4.000000E-1
Scans to average: 1
Nonlinearity correction enabled: false
Boxcar width: 0
Storing dark spectrum: false
XAxis mode: Wavelengths
Number of Pixels in Spectrum: 1024
>>>>>Begin Spectral Data<<<<<
801.071	8138
801.214	8084
801.356	7909
801.499	7898
801.641	7826
801.783	7833
801.926	7970
802.068	7940
802.211	7970
802.353	7925
802.496	7818
802.638	7921
802.78	7898
802.923	7917
803.065	7947
803.208	7951
803.35	8043
803.492	8096
803.635	8218
803.777	8084
803.919	8119
804.061	8457
804.204	8157
804.346	8084
804.488	8043
804.63	8183
804.773	8100
804.915	8088
805.057	8244
805.199	8233
805.341	8195
805.483	8229
805.626	8248
805.768	8145
805.91	8180
806.052	8271
806.194	8103
806.336	8263
806.478	8107
806.62	8081
806.762	8126
806.904	8305
807.046	8469
807.188	8362
807.33	8305
807.472	8385
807.614	8183
807.756	8187
807.898	8058
808.04	7936
808.182	7928
808.324	7826
808.465	7879
808.607	8100
808.749	8103
808.891	8240
809.033	8313
809.174	8210
809.316	8168
809.458	8081
809.6	7947
809.741	8039
809.883	8039
810.025	8065
810.166	8039
810.308	8039
810.45	8001
810.591	7868
810.733	7677
810.875	7605
811.016	7518
811.158	7483
811.299	7693
811.441	7700
811.582	7689
811.724	7594
811.865	7483
812.007	7620
812.148	7548
812.29	7651
812.431	7723
812.573	7894
812.714	8031
812.855	8119
812.997	8191
813.138	8358
813.279	8157
813.421	8149
813.562	8012
813.703	7902
813.845	7772
813.986	7491
814.127	7308
814.268	7259
814.41	7228
814.551	7118
814.692	7183
814.833	7046
814.974	7107
815.115	7118
815.256	6947
815.397	6916
815.539	6962
815.68	6821
815.821	6787
815.962	6818
816.103	6863
816.244	6734
816.385	6684
816.526	6650
816.666	6486
816.807	6327
816.948	6448
817.089	6513
817.23	6441
817.371	6422
817.512	6414
817.653	6376
817.793	6418
817.934	6429
818.075	6490
818.216	6407
818.356	6429
818.497	6254
818.638	6129
818.778	6152
818.919	6068
819.06	6125
819.2	6285
819.341	6319
819.481	6338
819.622	6551
819.762	6772
819.903	6597
820.043	6604
820.184	6566
820.324	6627
820.465	6722
820.605	6662
820.746	6642
820.886	6532
821.026	6700
821.167	6745
821.307	6848
821.447	6764
821.588	6662
821.728	6612
821.868	6509
822.008	6361
822.149	6331
822.289	6380
822.429	6129
822.569	6076
822.709	6079
822.849	5885
822.99	5973
823.13	5950
823.27	5950
823.41	5779
823.55	5809
823.69	5775
823.83	5790
823.97	5668
824.11	5543
824.25	5505
824.389	5551
824.529	5577
824.669	5539
824.809	5691
824.949	5684
825.089	5676
825.228	5566
825.368	5425
825.508	5357
825.648	5357
825.787	5414
825.927	5402
826.067	5288
826.206	5288
826.346	5414
826.485	5395
826.625	5417
826.765	5562
826.904	5486
827.044	5250
827.183	5223
827.323	5132
827.462	5299
827.601	5220
827.741	5212
827.88	5204
828.02	5166
828.159	5288
828.298	5330
828.437	5334
828.577	5269
828.716	5512
828.855	5372
828.994	5162
829.134	5124
829.273	5204
829.412	5170
829.551	5086
829.69	5185
829.829	5246
829.968	5379
830.107	5307
830.246	5277
830.385	5212
830.524	5162
830.663	5098
830.802	4999
830.941	4889
831.08	4949
831.219	4995
831.357	5029
831.496	5208
831.635	4946
831.774	4831
831.913	4847
832.051	4759
832.19	4710
832.329	4858
832.467	4691
832.606	4687
832.744	4702
832.883	4710
833.022	4736
833.16	4839
833.299	4900
833.437	4858
833.576	4839
833.714	4835
833.852	4881
833.991	4908
834.129	4991
834.267	4976
834.406	4934
834.544	4980
834.682	4938
834.821	4927
834.959	5189
835.097	4972
835.235	5140
835.373	5052
835.511	5105
835.65	5075
835.788	5060
835.926	4927
836.064	4862
836.202	4927
836.34	5277
836.478	5239
836.615	5174
836.753	5212
836.891	5273
837.029	5231
837.167	5197
837.305	5166
837.443	5124
837.58	5121
837.718	5280
837.856	5197
837.993	5136
838.131	5231
838.269	5250
838.406	5166
838.544	5143
838.681	5041
838.819	4927
838.956	4911
839.094	4911
839.231	4987
839.369	5105
839.506	5448
839.643	5239
839.781	5067
839.918	5033
840.055	5140
840.193	5079
840.33	5098
840.467	5113
840.604	5197
840.742	5478
840.879	5071
841.016	5136
841.153	5132
841.29	5334
841.427	5296
841.564	5258
841.701	5383
841.838	5288
841.975	5258
842.112	5288
842.249	5143
842.385	5102
842.522	5315
842.659	5197
842.796	5185
842.933	5204
843.069	5136
843.206	5132
843.343	5303
843.479	5223
843.616	5292
843.752	5003
843.889	5006
844.025	5189
844.162	5052
844.298	5178
844.435	5132
844.571	5056
844.708	5170
844.844	5288
844.98	5349
845.117	5326
845.253	5121
845.389	5079
845.525	5181
845.661	5151
845.798	5052
845.934	5090
846.07	5041
846.206	5159
846.342	5277
846.478	5174
846.614	4999
846.75	4942
846.886	4984
847.022	5113
847.158	5071
847.294	5064
847.429	5124
847.565	5071
847.701	5280
847.837	4873
847.972	4828
848.108	4965
848.244	4930
848.379	4771
848.515	4744
848.65	4679
848.786	4717
848.921	4744
849.057	4915
849.192	4923
849.328	4797
849.463	4889
849.598	4805
849.734	4714
849.869	4721
850.004	4626
850.14	4679
850.275	4592
850.41	4531
850.545	4569
850.68	4615
850.815	4607
850.95	4622
851.085	4900
851.22	4767
851.355	4683
851.49	4607
851.625	4660
851.76	4637
851.895	4546
852.03	4588
852.165	4634
852.299	4740
852.434	4778
852.569	4748
852.703	4763
852.838	4828
852.973	4927
853.107	4896
853.242	4729
853.376	4675
853.511	4565
853.645	4634
853.78	4812
853.914	4668
854.048	4702
854.183	4664
854.317	4679
854.451	4839
854.585	4660
854.72	4622
854.854	4733
854.988	4577
855.122	4603
855.256	4523
855.39	4660
855.524	4767
855.658	4664
855.792	4694
855.926	4679
856.06	4767
856.194	4771
856.327	4706
856.461	4630
856.595	4592
856.729	4603
856.862	4717
856.996	4710
857.13	4687
857.263	4725
857.397	4786
857.53	4626
857.664	4706
857.797	4793
857.931	4729
858.064	4653
858.197	4729
858.331	4691
858.464	4615
858.597	4577
858.731	4607
858.864	4634
858.997	4580
859.13	4694
859.263	4672
859.396	4725
859.529	4626
859.662	4592
859.795	4542
859.928	4664
860.061	4812
860.194	4778
860.327	4607
860.46	4565
860.592	4710
860.725	4733
860.858	4687
860.99	4580
861.123	4512
861.256	4523
861.388	4561
861.521	5280
861.653	4462
861.786	4493
861.918	4481
862.05	4527
862.183	4554
862.315	4626
862.447	4618
862.58	4531
862.712	4421
862.844	4375
862.976	4512
863.108	4432
863.24	4858
863.372	4337
863.504	4424
863.636	4409
863.768	4508
863.9	4474
864.032	4352
864.164	4413
864.296	4470
864.428	4542
864.559	4569
864.691	4550
864.823	4519
864.954	4493
865.086	4546
865.217	4474
865.349	4405
865.48	4436
865.612	4451
865.743	4672
865.875	4466
866.006	4379
866.137	4478
866.269	4447
866.4	4428
866.531	4413
866.662	4443
866.793	4379
866.924	4413
867.055	4489
867.186	4451
867.317	4424
867.448	4421
867.579	4367
867.71	4390
867.841	4352
867.972	4424
868.103	4459
868.233	4451
868.364	4466
868.495	4485
868.625	4664
868.756	4736
868.886	4565
869.017	4554
869.147	4790
869.278	4771
869.408	4626
869.539	4626
869.669	4752
869.799	4653
869.929	4748
870.06	4736
870.19	4953
870.32	4896
870.45	4930
870.58	4980
870.71	5090
870.84	5090
870.97	4938
871.1	4862
871.23	5159
871.36	5102
871.489	5003
871.619	5090
871.749	5090
871.879	5079
872.008	5151
872.138	5045
872.267	4980
872.397	4831
872.526	4790
872.656	4710
872.785	4793
872.915	4968
873.044	5033
873.173	4915
873.303	4896
873.432	4934
873.561	4987
873.69	4927
873.819	4850
873.948	4881
874.077	4828
874.206	4755
874.335	4824
874.464	4908
874.593	5079
874.722	4949
874.851	5105
874.979	5052
875.108	5025
875.237	4873
875.365	4828
875.494	4930
875.623	4984
875.751	4835
875.88	4900
876.008	4938
876.136	4999
876.265	5159
876.393	5280
876.521	5258
876.65	5235
876.778	5140
876.906	5075
877.034	5006
877.162	5037
877.29	4987
877.418	5037
877.546	5052
877.674	5033
877.802	4984
877.93	5025
878.058	4923
878.185	4870
878.313	4919
878.441	4923
878.568	4782
878.696	4904
878.824	4984
878.951	4984
879.079	5124
879.206	5231
879.333	5090
879.461	4946
879.588	4965
879.715	5098
879.842	5231
879.97	4991
880.097	4790
880.224	4668
880.351	4740
880.478	4831
880.605	4793
880.732	4733
880.859	5098
880.986	4900
881.112	4911
881.239	4778
881.366	4729
881.493	4599
881.619	4569
881.746	4599
881.872	4634
881.999	4664
882.125	4698
882.252	4733
882.378	4786
882.505	4980
882.631	4740
882.757	4626
882.883	4774
883.01	4729
883.136	4687
883.262	4580
883.388	4611
883.514	4797
883.64	4828
883.766	4778
883.892	4683
884.018	4736
884.143	4892
884.269	5018
884.395	4664
884.52	4664
884.646	4649
884.772	4516
884.897	4558
885.023	4634
885.148	4782
885.274	4900
885.399	4782
885.524	4702
885.65	4702
885.775	4736
885.9	4660
886.025	4862
886.15	4786
886.275	4672
886.4	4607
886.525	4672
886.65	4660
886.775	4687
886.9	4930
887.025	5022
887.149	4790
887.274	4653
887.399	4607
887.523	4634
887.648	4599
887.773	4603
887.897	4740
888.021	4820
888.146	4641
888.27	4839
888.395	4896
888.519	4782
888.643	4759
888.767	4831
888.891	4717
889.015	4580
889.139	4622
889.263	4580
889.387	4744
889.511	4847
889.635	4755
889.759	4588
889.883	4607
890.006	4744
890.13	4820
890.254	4618
890.377	4702
890.501	4550
890.624	4485
890.748	4615
890.871	4470
890.995	4443
891.118	4363
891.241	4519
891.364	4504
891.488	4596
891.611	4466
891.734	4531
891.857	4584
891.98	4531
892.103	4603
892.226	4577
892.349	4550
892.471	4424
892.594	4565
892.717	4573
892.839	4580
892.962	4569
893.085	4694
893.207	4592
893.33	4436
893.452	4485
893.575	4607
893.697	4588
893.819	4782
893.941	4793
894.064	4763
894.186	4573
894.308	4580
894.43	4740
894.552	4797
894.674	4717
894.796	4519
894.918	4607
895.04	4558
895.161	4710
895.283	4637
895.405	4596
895.526	4641
895.648	4691
895.769	4687
895.891	4656
896.012	4702
896.134	4706
896.255	4675
896.376	4565
896.498	4592
896.619	4675
896.74	4554
896.861	4649
896.982	4885
897.103	5041
897.224	4824
897.345	4736
897.466	4653
897.587	4721
897.708	4793
897.828	4736
897.949	4641
898.07	4558
898.19	4656
898.311	4793
898.431	4653
898.552	4729
898.672	4805
898.792	4782
898.913	4702
899.033	4580
899.153	4466
899.273	4443
899.393	4474
899.513	4497
899.633	4504
899.753	4542
899.873	4497
899.993	4558
900.113	4493
900.232	4573
900.352	4512
900.472	4489
900.591	4386
900.711	4470
900.83	4436
900.95	4577
901.069	4672
901.189	4531
901.308	4344
901.427	4333
901.546	4367
901.665	4462
901.784	4485
901.904	4356
902.023	4295
902.141	4196
902.26	4147
902.379	4246
902.498	4238
902.617	4196
902.735	4371
902.854	4424
902.973	4337
903.091	4200
903.21	4169
903.328	4291
903.446	4280
903.565	4200
903.683	4352
903.801	4265
903.919	4386
904.038	4436
904.156	4291
904.274	4402
904.392	4371
904.51	4443
904.627	4421
904.745	4577
904.863	4641
904.981	4383
905.098	4325
905.216	4329
905.334	4398
905.451	4413
905.569	4466
905.686	4523
905.803	4542
905.921	4325
906.038	4512
906.155	4447
906.272	4402
906.389	4443
906.506	4348
906.623	4371
906.74	4360
906.857	4322
906.974	4325
907.091	4523
907.208	4672
907.324	4588
907.441	4428
907.557	4310
907.674	4318
907.79	4333
907.907	4348
908.023	4470
908.139	4497
908.256	4432
908.372	4417
908.488	4451
908.604	4306
908.72	4303
908.836	4352
908.952	4367
909.068	4417
909.184	4516
909.3	4508
909.415	4573
909.531	4535
909.647	4306
909.762	4390
909.878	4341
909.993	4432
910.108	4402
910.224	4375
910.339	4459
910.454	4390
910.57	4318
910.685	4314
910.8	4603
910.915	4580
911.03	4424
911.145	4287
911.259	4284
911.374	4337
911.489	4268
911.604	4257
911.718	4211
911.833	4192
911.947	4112
912.062	4021
912.176	4196
912.291	4192
912.405	4230
912.519	4493
912.633	4470
912.748	4379
912.862	4299
912.976	4196
913.09	4051
913.204	4154
913.318	4257
913.431	4329
913.545	4394
913.659	4436
913.772	4371
913.886	4242
914	4223
914.113	4356
914.226	4363
914.34	4303
914.453	4196
914.566	4379
914.68	4284
914.793	4299
914.906	4139
915.019	4082
915.132	4048
915.245	4158
915.358	4223
915.47	4257
915.583	4223
915.696	4287
915.809	4417
915.921	4417
916.034	4253
916.146	4238
916.259	4196
916.371	4333
916.483	4310
916.595	4234
916.708	4261
916.82	4371
916.932	4314
917.044	4291
917.156	4310
917.268	4238
917.38	4268
917.491	4257
917.603	4261
917.715	4363
917.826	4390
917.938	4428
918.049	4280
918.161	4394
918.272	4512
918.384	4535
918.495	4447
918.606	4295
918.717	4246
918.828	4390
918.939	4329
919.05	4242
919.161	4318
919.272	4090
919.383	4196
919.494	4474
919.604	4588
919.715	4451
919.826	4348
919.936	4390
920.047	4538
920.157	4451
920.267	4683
920.378	4542
920.488	4485
920.598	4694
920.708	4911
920.818	4736
920.928	4755
921.038	4946
921.148	4892
921.258	4607
921.368	4516
921.477	4447
921.587	4436
921.697	4371
921.806	4558
921.916	4398
922.025	4268
922.134	4234
922.244	4230
922.353	4402
922.462	4192
922.571	4139
922.68	4036
922.789	3945
922.898	4036
923.007	4021
923.116	4059
923.224	4048
923.333	4036
923.442	4025
923.55	3949
923.659	3987
923.767	4074
923.876	3968
923.984	4109
924.092	3994
924.201	4059
924.309	4086
924.417	4078
924.525	4051
924.633	4082
924.741	5056
924.849	3911
924.956	4109
925.064	3964
925.172	3876
925.279	3953
925.387	3991
925.494	4093
925.602	4196
925.709	4158
925.816	4002
925.924	4112
926.031	4223
926.138	4154
926.245	4207
926.352	4086
926.459	4230
926.566	4261
926.673	4143
926.779	4071
926.886	4055
926.993	3922
927.099	3945
927.206	3937
927.312	3880
927.419	4097
927.525	3994
927.631	4131
927.737	3930
927.843	3956
927.95	3816
928.056	3945
928.162	3972
928.267	4063
928.373	4653
928.479	4112
928.585	3892
928.69	3975
928.796	4078
928.901	3964
929.007	3831
929.112	3975
929.218	3975
929.323	3934
929.428	3922
929.533	4071
929.638	3888
929.743	3949
929.848	4051
929.953	3972
930.058	3876
930.163	3804
930.267	3831
930.372	3941
930.477	3846
930.581	4029
930.685	3915
930.79	3789
930.894	3876
930.998	3854
931.103	3998
931.207	3705
931.311	3686
931.415	3652
931.519	3523
931.623	3564
