Data from test_V78500241_248.txt Node
Date: Fri Mar 25 16:50:43 CST 2022
User: usil
Spectrometer: V785-0024
Trigger mode: 0
Integration Time (sec): 4.000000E-1
Scans to average: 1
Nonlinearity correction enabled: false
Boxcar width: 0
Storing dark spectrum: false
XAxis mode: Wavelengths
Number of Pixels in Spectrum: 1024
>>>>>Begin Spectral Data<<<<<
801.071	8062
801.214	7978
801.356	7830
801.499	7921
801.641	7814
801.783	7818
801.926	7993
802.068	7959
802.211	8008
802.353	8012
802.496	7856
802.638	7913
802.78	7967
802.923	7932
803.065	7856
803.208	7826
803.35	7944
803.492	8024
803.635	8123
803.777	7947
803.919	8119
804.061	8434
804.204	8161
804.346	8031
804.488	7921
804.63	8107
804.773	8024
804.915	8111
805.057	8210
805.199	8183
805.341	8252
805.483	8290
805.626	8187
805.768	8100
805.91	8183
806.052	8168
806.194	8084
806.336	8305
806.478	8058
806.62	7993
806.762	8100
806.904	8225
807.046	8431
807.188	8347
807.33	8286
807.472	8320
807.614	8103
807.756	8062
807.898	7951
808.04	7890
808.182	7894
808.324	7902
808.465	7936
808.607	8065
808.749	8115
808.891	8210
809.033	8290
809.174	8225
809.316	8027
809.458	8054
809.6	7947
809.741	8035
809.883	8005
810.025	8077
810.166	8077
810.308	8020
810.45	7982
810.591	7841
810.733	7769
810.875	7632
811.016	7472
811.158	7510
811.299	7620
811.441	7792
811.582	7655
811.724	7525
811.865	7559
812.007	7613
812.148	7556
812.29	7655
812.431	7753
812.573	7856
812.714	8024
812.855	8183
812.997	8229
813.138	8317
813.279	8229
813.421	8065
813.562	8054
813.703	7883
813.845	7738
813.986	7472
814.127	7240
814.268	7225
814.41	7244
814.551	7145
814.692	7164
814.833	7122
814.974	7031
815.115	7076
815.256	6913
815.397	6951
815.539	6985
815.68	6848
815.821	6772
815.962	6920
816.103	6818
816.244	6692
816.385	6658
816.526	6639
816.666	6517
816.807	6331
816.948	6464
817.089	6490
817.23	6426
817.371	6357
817.512	6300
817.653	6365
817.793	6376
817.934	6391
818.075	6426
818.216	6403
818.356	6376
818.497	6251
818.638	6072
818.778	6106
818.919	6102
819.06	6171
819.2	6262
819.341	6304
819.481	6350
819.622	6536
819.762	6707
819.903	6772
820.043	6528
820.184	6585
820.324	6582
820.465	6707
820.605	6700
820.746	6623
820.886	6483
821.026	6627
821.167	6646
821.307	6825
821.447	6753
821.588	6620
821.728	6593
821.868	6532
822.008	6342
822.149	6395
822.289	6323
822.429	6072
822.569	6064
822.709	6129
822.849	5920
822.99	5893
823.13	5882
823.27	5912
823.41	5775
823.55	5771
823.69	5771
823.83	5756
823.97	5672
824.11	5501
824.25	5490
824.389	5512
824.529	5573
824.669	5520
824.809	5661
824.949	5649
825.089	5630
825.228	5528
825.368	5459
825.508	5349
825.648	5311
825.787	5341
825.927	5398
826.067	5299
826.206	5311
826.346	5341
826.485	5433
826.625	5444
826.765	5539
826.904	5455
827.044	5269
827.183	5159
827.323	5170
827.462	5258
827.601	5181
827.741	5227
827.88	5178
828.02	5102
828.159	5254
828.298	5303
828.437	5353
828.577	5235
828.716	5474
828.855	5318
828.994	5143
829.134	5174
829.273	5178
829.412	5162
829.551	5105
829.69	5159
829.829	5254
829.968	5376
830.107	5303
830.246	5296
830.385	5204
830.524	5136
830.663	5083
830.802	4927
830.941	4900
831.08	4877
831.219	4995
831.357	4942
831.496	5159
831.635	4946
831.774	4881
831.913	4835
832.051	4748
832.19	4767
832.329	4828
832.467	4694
832.606	4637
832.744	4721
832.883	4717
833.022	4702
833.16	4778
833.299	4858
833.437	4862
833.576	4820
833.714	4870
833.852	4862
833.991	4828
834.129	4976
834.267	4915
834.406	4873
834.544	4942
834.682	5018
834.821	4923
834.959	5143
835.097	5029
835.235	5140
835.373	5079
835.511	5105
835.65	5071
835.788	5041
835.926	4946
836.064	4854
836.202	4915
836.34	5174
836.478	5235
836.615	5124
836.753	5197
836.891	5322
837.029	5277
837.167	5231
837.305	5113
837.443	5166
837.58	5109
837.718	5239
837.856	5147
837.993	5109
838.131	5216
838.269	5261
838.406	5212
838.544	5174
838.681	5098
838.819	5006
838.956	4885
839.094	4908
839.231	5003
839.369	5079
839.506	5398
839.643	5284
839.781	5041
839.918	5060
840.055	5067
840.193	5098
840.33	5098
840.467	5117
840.604	5208
840.742	5444
840.879	5098
841.016	5094
841.153	5105
841.29	5360
841.427	5330
841.564	5246
841.701	5353
841.838	5288
841.975	5246
842.112	5242
842.249	5174
842.385	5102
842.522	5315
842.659	5204
842.796	5147
842.933	5155
843.069	5155
843.206	5136
843.343	5337
843.479	5216
843.616	5235
843.752	5098
843.889	4991
844.025	5220
844.162	5006
844.298	5220
844.435	5090
844.571	5048
844.708	5185
844.844	5284
844.98	5307
845.117	5231
845.253	5136
845.389	5102
845.525	5181
845.661	5124
845.798	5064
845.934	5147
846.07	5079
846.206	5216
846.342	5280
846.478	5204
846.614	4987
846.75	4995
846.886	4942
847.022	5098
847.158	5071
847.294	5067
847.429	5083
847.565	5098
847.701	5326
847.837	4824
847.972	4809
848.108	4938
848.244	4953
848.379	4755
848.515	4736
848.65	4736
848.786	4683
848.921	4721
849.057	4828
849.192	4919
849.328	4820
849.463	4812
849.598	4763
849.734	4763
849.869	4702
850.004	4706
850.14	4664
850.275	4577
850.41	4504
850.545	4558
850.68	4569
850.815	4558
850.95	4645
851.085	4816
851.22	4801
851.355	4664
851.49	4672
851.625	4653
851.76	4622
851.895	4577
852.03	4569
852.165	4656
852.299	4755
852.434	4778
852.569	4725
852.703	4744
852.838	4908
852.973	4934
853.107	4938
853.242	4675
853.376	4630
853.511	4615
853.645	4596
853.78	4805
853.914	4771
854.048	4637
854.183	4660
854.317	4721
854.451	4847
854.585	4622
854.72	4615
854.854	4774
854.988	4634
855.122	4637
855.256	4504
855.39	4675
855.524	4767
855.658	4736
855.792	4744
855.926	4748
856.06	4744
856.194	4744
856.327	4706
856.461	4649
856.595	4668
856.729	4649
856.862	4736
856.996	4725
857.13	4748
857.263	4767
857.397	4786
857.53	4630
857.664	4729
857.797	4755
857.931	4793
858.064	4691
858.197	4748
858.331	4664
858.464	4634
858.597	4504
858.731	4626
858.864	4645
858.997	4611
859.13	4675
859.263	4645
859.396	4679
859.529	4596
859.662	4565
859.795	4554
859.928	4630
860.061	4782
860.194	4786
860.327	4618
860.46	4554
860.592	4664
860.725	4694
860.858	4721
860.99	4580
861.123	4493
861.256	4508
861.388	4626
861.521	5357
861.653	4508
861.786	4447
861.918	4432
862.05	4538
862.183	4538
862.315	4580
862.447	4656
862.58	4580
862.712	4402
862.844	4325
862.976	4489
863.108	4462
863.24	4889
863.372	4352
863.504	4428
863.636	4375
863.768	4443
863.9	4436
864.032	4360
864.164	4413
864.296	4455
864.428	4561
864.559	4584
864.691	4516
864.823	4497
864.954	4497
865.086	4504
865.217	4474
865.349	4428
865.48	4440
865.612	4500
865.743	4618
865.875	4470
866.006	4398
866.137	4500
866.269	4417
866.4	4436
866.531	4375
866.662	4402
866.793	4383
866.924	4383
867.055	4493
867.186	4481
867.317	4405
867.448	4417
867.579	4383
867.71	4432
867.841	4363
867.972	4478
868.103	4466
868.233	4474
868.364	4383
868.495	4523
868.625	4664
868.756	4748
868.886	4561
869.017	4641
869.147	4771
869.278	4797
869.408	4725
869.539	4645
869.669	4694
869.799	4672
869.929	4767
870.06	4763
870.19	4919
870.32	4862
870.45	4942
870.58	5041
870.71	5121
870.84	5098
870.97	4965
871.1	4908
871.23	5090
871.36	5128
871.489	5037
871.619	5048
871.749	5113
871.879	5098
872.008	5170
872.138	5102
872.267	4957
872.397	4809
872.526	4778
872.656	4729
872.785	4812
872.915	4961
873.044	4999
873.173	4949
873.303	4972
873.432	4949
873.561	4938
873.69	4881
873.819	4870
873.948	4911
874.077	4839
874.206	4752
874.335	4812
874.464	4949
874.593	5086
874.722	4976
874.851	5048
874.979	5006
875.108	4991
875.237	4889
875.365	4866
875.494	4889
875.623	4968
875.751	4870
875.88	4870
876.008	4961
876.136	5037
876.265	5212
876.393	5315
876.521	5254
876.65	5143
876.778	5159
876.906	5041
877.034	5048
877.162	5098
877.29	4972
877.418	5083
877.546	5029
877.674	5075
877.802	5052
877.93	4995
878.058	4923
878.185	4889
878.313	5064
878.441	4987
878.568	4801
878.696	4915
878.824	4957
878.951	4976
879.079	5124
879.206	5280
879.333	5079
879.461	4976
879.588	5014
879.715	5136
879.842	5242
879.97	5048
880.097	4759
880.224	4744
880.351	4881
880.478	4793
880.605	4831
880.732	4790
880.859	5113
880.986	4889
881.112	4946
881.239	4797
881.366	4698
881.493	4588
881.619	4622
881.746	4653
881.872	4656
881.999	4687
882.125	4733
882.252	4759
882.378	4812
882.505	4995
882.631	4801
882.757	4645
882.883	4752
883.01	4759
883.136	4637
883.262	4588
883.388	4664
883.514	4782
883.64	4858
883.766	4793
883.892	4687
884.018	4748
884.143	4908
884.269	5010
884.395	4672
884.52	4660
884.646	4656
884.772	4584
884.897	4607
885.023	4706
885.148	4771
885.274	4850
885.399	4831
885.524	4687
885.65	4706
885.775	4702
885.9	4725
886.025	4854
886.15	4786
886.275	4752
886.4	4683
886.525	4733
886.65	4694
886.775	4702
886.9	4889
887.025	5010
887.149	4801
887.274	4622
887.399	4561
887.523	4611
887.648	4596
887.773	4588
887.897	4752
888.021	4820
888.146	4691
888.27	4843
888.395	4949
888.519	4805
888.643	4816
888.767	4835
888.891	4706
889.015	4584
889.139	4664
889.263	4607
889.387	4744
889.511	4892
889.635	4805
889.759	4634
889.883	4626
890.006	4763
890.13	4828
890.254	4656
890.377	4656
890.501	4546
890.624	4462
890.748	4607
890.871	4527
890.995	4432
891.118	4428
891.241	4554
891.364	4546
891.488	4637
891.611	4489
891.734	4535
891.857	4634
891.98	4603
892.103	4634
892.226	4577
892.349	4584
892.471	4443
892.594	4523
892.717	4615
892.839	4603
892.962	4611
893.085	4618
893.207	4607
893.33	4470
893.452	4569
893.575	4656
893.697	4649
893.819	4812
893.941	4786
894.064	4835
894.186	4596
894.308	4558
894.43	4710
894.552	4858
894.674	4771
894.796	4565
894.918	4569
895.04	4538
895.161	4755
895.283	4645
895.405	4630
895.526	4641
895.648	4698
895.769	4721
895.891	4725
896.012	4706
896.134	4714
896.255	4618
896.376	4634
896.498	4596
896.619	4698
896.74	4649
896.861	4607
896.982	4942
897.103	5098
897.224	4877
897.345	4725
897.466	4706
897.587	4748
897.708	4820
897.828	4740
897.949	4683
898.07	4573
898.19	4664
898.311	4805
898.431	4675
898.552	4782
898.672	4854
898.792	4843
898.913	4748
899.033	4603
899.153	4535
899.273	4432
899.393	4527
899.513	4538
899.633	4504
899.753	4573
899.873	4561
899.993	4637
900.113	4531
900.232	4561
900.352	4554
900.472	4462
900.591	4383
900.711	4489
900.83	4462
900.95	4584
901.069	4683
901.189	4558
901.308	4360
901.427	4318
901.546	4428
901.665	4443
901.784	4512
901.904	4367
902.023	4344
902.141	4192
902.26	4166
902.379	4341
902.498	4287
902.617	4211
902.735	4379
902.854	4424
902.973	4348
903.091	4192
903.21	4207
903.328	4284
903.446	4295
903.565	4234
903.683	4325
903.801	4272
903.919	4379
904.038	4421
904.156	4306
904.274	4462
904.392	4379
904.51	4421
904.627	4489
904.745	4569
904.863	4645
904.981	4386
905.098	4344
905.216	4402
905.334	4413
905.451	4424
905.569	4447
905.686	4531
905.803	4588
905.921	4428
906.038	4554
906.155	4519
906.272	4489
906.389	4478
906.506	4386
906.623	4379
906.74	4375
906.857	4318
906.974	4402
907.091	4569
907.208	4660
907.324	4615
907.441	4466
907.557	4356
907.674	4314
907.79	4341
907.907	4390
908.023	4478
908.139	4493
908.256	4481
908.372	4478
908.488	4481
908.604	4363
908.72	4352
908.836	4329
908.952	4379
909.068	4390
909.184	4584
909.3	4481
909.415	4592
909.531	4504
909.647	4352
909.762	4356
909.878	4341
909.993	4462
910.108	4474
910.224	4394
910.339	4489
910.454	4451
910.57	4363
910.685	4352
910.8	4679
910.915	4649
911.03	4508
911.145	4394
911.259	4348
911.374	4375
911.489	4306
911.604	4257
911.718	4219
911.833	4215
911.947	4097
912.062	4044
912.176	4204
912.291	4261
912.405	4242
912.519	4443
912.633	4508
912.748	4432
912.862	4314
912.976	4207
913.09	4112
913.204	4173
913.318	4306
913.431	4375
913.545	4337
913.659	4474
913.772	4348
913.886	4291
914	4219
914.113	4363
914.226	4455
914.34	4367
914.453	4261
914.566	4432
914.68	4303
914.793	4356
914.906	4181
915.019	4131
915.132	4067
915.245	4169
915.358	4227
915.47	4261
915.583	4257
915.696	4333
915.809	4394
915.921	4424
916.034	4303
916.146	4265
916.259	4242
916.371	4390
916.483	4329
916.595	4242
916.708	4352
916.82	4310
916.932	4356
917.044	4352
917.156	4314
917.268	4284
917.38	4299
917.491	4257
917.603	4363
917.715	4443
917.826	4451
917.938	4356
918.049	4261
918.161	4344
918.272	4550
918.384	4535
918.495	4481
918.606	4284
918.717	4223
918.828	4371
918.939	4363
919.05	4253
919.161	4322
919.272	4147
919.383	4238
919.494	4424
919.604	4660
919.715	4455
919.826	4367
919.936	4375
920.047	4546
920.157	4519
920.267	4653
920.378	4565
920.488	4470
920.598	4698
920.708	4885
920.818	4752
920.928	4793
921.038	4938
921.148	4889
921.258	4599
921.368	4512
921.477	4523
921.587	4478
921.697	4386
921.806	4546
921.916	4447
922.025	4322
922.134	4268
922.244	4169
922.353	4356
922.462	4188
922.571	4109
922.68	4036
922.789	3987
922.898	4059
923.007	4029
923.116	4093
923.224	4101
923.333	4086
923.442	3991
923.55	3960
923.659	4067
923.767	4112
923.876	4002
923.984	4101
924.092	3987
924.201	4036
924.309	4093
924.417	4169
924.525	4036
924.633	4128
924.741	5037
924.849	3915
924.956	4181
925.064	3956
925.172	3876
925.279	3975
925.387	4032
925.494	4067
925.602	4272
925.709	4196
925.816	4059
925.924	4128
926.031	4230
926.138	4196
926.245	4253
926.352	4120
926.459	4242
926.566	4276
926.673	4188
926.779	4082
926.886	4105
926.993	3998
927.099	3972
927.206	3918
927.312	3934
927.419	4074
927.525	4036
927.631	4135
927.737	3968
927.843	3903
927.95	3808
928.056	3934
928.162	3964
928.267	4067
928.373	4577
928.479	4124
928.585	3915
928.69	4032
928.796	4067
928.901	4017
929.007	3816
929.112	3991
929.218	3994
929.323	3922
929.428	3983
929.533	4082
929.638	3896
929.743	4002
929.848	4036
929.953	3968
930.058	3926
930.163	3800
930.267	3831
930.372	4044
930.477	3808
930.581	4112
930.685	3956
930.79	3842
930.894	3880
930.998	3926
931.103	4036
931.207	3728
931.311	3694
931.415	3671
931.519	3545
931.623	3557
