Data from test_V78500241_306.txt Node
Date: Fri Mar 25 16:51:07 CST 2022
User: usil
Spectrometer: V785-0024
Trigger mode: 0
Integration Time (sec): 4.000000E-1
Scans to average: 1
Nonlinearity correction enabled: false
Boxcar width: 0
Storing dark spectrum: false
XAxis mode: Wavelengths
Number of Pixels in Spectrum: 1024
>>>>>Begin Spectral Data<<<<<
801.071	8103
801.214	8058
801.356	7883
801.499	7871
801.641	7856
801.783	7837
801.926	7978
802.068	7986
802.211	8031
802.353	8005
802.496	7921
802.638	7925
802.78	7951
802.923	8012
803.065	7932
803.208	7860
803.35	7974
803.492	8062
803.635	8092
803.777	8008
803.919	8123
804.061	8476
804.204	8035
804.346	8103
804.488	7970
804.63	8123
804.773	8005
804.915	8096
805.057	8259
805.199	8157
805.341	8199
805.483	8206
805.626	8271
805.768	8081
805.91	8107
806.052	8145
806.194	8096
806.336	8233
806.478	8138
806.62	8138
806.762	8134
806.904	8317
807.046	8434
807.188	8377
807.33	8343
807.472	8294
807.614	8149
807.756	8111
807.898	7997
808.04	7913
808.182	7879
808.324	7963
808.465	7967
808.607	8050
808.749	8130
808.891	8237
809.033	8279
809.174	8176
809.316	8031
809.458	8020
809.6	8008
809.741	8035
809.883	7982
810.025	8092
810.166	8100
810.308	8054
810.45	7982
810.591	7822
810.733	7753
810.875	7715
811.016	7514
811.158	7468
811.299	7594
811.441	7807
811.582	7712
811.724	7578
811.865	7525
812.007	7643
812.148	7658
812.29	7578
812.431	7757
812.573	7799
812.714	7970
812.855	8020
812.997	8191
813.138	8267
813.279	8149
813.421	8107
813.562	7959
813.703	7917
813.845	7742
813.986	7502
814.127	7282
814.268	7259
814.41	7225
814.551	7202
814.692	7228
814.833	7110
814.974	7088
815.115	7114
815.256	6909
815.397	6886
815.539	6935
815.68	6844
815.821	6764
815.962	6837
816.103	6821
816.244	6684
816.385	6646
816.526	6753
816.666	6536
816.807	6361
816.948	6429
817.089	6464
817.23	6426
817.371	6372
817.512	6388
817.653	6361
817.793	6357
817.934	6433
818.075	6517
818.216	6422
818.356	6410
818.497	6258
818.638	6129
818.778	6178
818.919	6148
819.06	6163
819.2	6334
819.341	6319
819.481	6342
819.622	6506
819.762	6726
819.903	6688
820.043	6582
820.184	6585
820.324	6509
820.465	6722
820.605	6681
820.746	6669
820.886	6532
821.026	6582
821.167	6631
821.307	6772
821.447	6787
821.588	6700
821.728	6623
821.868	6471
822.008	6319
822.149	6372
822.289	6357
822.429	6175
822.569	6057
822.709	6125
822.849	5939
822.99	5904
823.13	5897
823.27	5935
823.41	5840
823.55	5813
823.69	5748
823.83	5760
823.97	5642
824.11	5562
824.25	5455
824.389	5505
824.529	5562
824.669	5516
824.809	5570
824.949	5665
825.089	5558
825.228	5570
825.368	5433
825.508	5372
825.648	5330
825.787	5406
825.927	5406
826.067	5326
826.206	5292
826.346	5372
826.485	5410
826.625	5452
826.765	5543
826.904	5474
827.044	5246
827.183	5223
827.323	5132
827.462	5223
827.601	5159
827.741	5155
827.88	5201
828.02	5079
828.159	5292
828.298	5307
828.437	5372
828.577	5280
828.716	5486
828.855	5326
828.994	5201
829.134	5174
829.273	5223
829.412	5159
829.551	5136
829.69	5189
829.829	5242
829.968	5379
830.107	5292
830.246	5273
830.385	5185
830.524	5162
830.663	5064
830.802	5003
830.941	4911
831.08	4843
831.219	4980
831.357	4991
831.496	5151
831.635	4953
831.774	4866
831.913	4828
832.051	4740
832.19	4729
832.329	4843
832.467	4721
832.606	4615
832.744	4721
832.883	4664
833.022	4774
833.16	4736
833.299	4793
833.437	4801
833.576	4843
833.714	4854
833.852	4889
833.991	4892
834.129	4930
834.267	4995
834.406	4919
834.544	4976
834.682	4984
834.821	4942
834.959	5170
835.097	4961
835.235	5121
835.373	5090
835.511	5075
835.65	5029
835.788	5029
835.926	4858
836.064	4831
836.202	4892
836.34	5159
836.478	5273
836.615	5098
836.753	5216
836.891	5258
837.029	5284
837.167	5197
837.305	5174
837.443	5162
837.58	5094
837.718	5288
837.856	5204
837.993	5143
838.131	5261
838.269	5212
838.406	5197
838.544	5151
838.681	5117
838.819	5010
838.956	4908
839.094	4934
839.231	4957
839.369	5071
839.506	5417
839.643	5246
839.781	5075
839.918	5048
840.055	5075
840.193	5159
840.33	5079
840.467	5132
840.604	5242
840.742	5455
840.879	5075
841.016	5094
841.153	5143
841.29	5368
841.427	5341
841.564	5315
841.701	5337
841.838	5265
841.975	5208
842.112	5246
842.249	5162
842.385	5170
842.522	5315
842.659	5193
842.796	5136
842.933	5170
843.069	5086
843.206	5136
843.343	5303
843.479	5250
843.616	5280
843.752	4999
843.889	5022
844.025	5208
844.162	4972
844.298	5208
844.435	5098
844.571	5048
844.708	5254
844.844	5337
844.98	5311
845.117	5277
845.253	5162
845.389	5086
845.525	5140
845.661	5124
845.798	5022
845.934	5121
846.07	4987
846.206	5181
846.342	5269
846.478	5113
846.614	4995
846.75	4949
846.886	4946
847.022	5117
847.158	5048
847.294	5086
847.429	5102
847.565	5029
847.701	5299
847.837	4858
847.972	4786
848.108	4991
848.244	4919
848.379	4790
848.515	4748
848.65	4759
848.786	4710
848.921	4790
849.057	4904
849.192	4900
849.328	4843
849.463	4858
849.598	4801
849.734	4759
849.869	4675
850.004	4599
850.14	4672
850.275	4649
850.41	4519
850.545	4561
850.68	4626
850.815	4656
850.95	4607
851.085	4816
851.22	4763
851.355	4634
851.49	4615
851.625	4660
851.76	4660
851.895	4538
852.03	4523
852.165	4641
852.299	4702
852.434	4763
852.569	4759
852.703	4744
852.838	4835
852.973	4965
853.107	4942
853.242	4755
853.376	4675
853.511	4569
853.645	4615
853.78	4793
853.914	4710
854.048	4668
854.183	4622
854.317	4691
854.451	4820
854.585	4668
854.72	4618
854.854	4717
854.988	4611
855.122	4649
855.256	4516
855.39	4649
855.524	4793
855.658	4694
855.792	4641
855.926	4763
856.06	4755
856.194	4790
856.327	4653
856.461	4592
856.595	4645
856.729	4611
856.862	4782
856.996	4691
857.13	4725
857.263	4740
857.397	4805
857.53	4653
857.664	4694
857.797	4763
857.931	4774
858.064	4683
858.197	4740
858.331	4637
858.464	4626
858.597	4512
858.731	4645
858.864	4653
858.997	4596
859.13	4668
859.263	4630
859.396	4672
859.529	4565
859.662	4588
859.795	4554
859.928	4664
860.061	4736
860.194	4771
860.327	4592
860.46	4542
860.592	4733
860.725	4752
860.858	4691
860.99	4573
861.123	4512
861.256	4516
861.388	4561
861.521	5307
861.653	4478
861.786	4413
861.918	4459
862.05	4538
862.183	4558
862.315	4611
862.447	4615
862.58	4546
862.712	4428
862.844	4265
862.976	4485
863.108	4512
863.24	4919
863.372	4314
863.504	4383
863.636	4409
863.768	4516
863.9	4379
864.032	4363
864.164	4428
864.296	4417
864.428	4569
864.559	4531
864.691	4516
864.823	4500
864.954	4512
865.086	4512
865.217	4500
865.349	4402
865.48	4447
865.612	4493
865.743	4653
865.875	4493
866.006	4436
866.137	4523
866.269	4451
866.4	4485
866.531	4443
866.662	4432
866.793	4394
866.924	4455
867.055	4440
867.186	4485
867.317	4367
867.448	4394
867.579	4375
867.71	4451
867.841	4344
867.972	4436
868.103	4440
868.233	4451
868.364	4428
868.495	4481
868.625	4687
868.756	4755
868.886	4561
869.017	4599
869.147	4805
869.278	4752
869.408	4603
869.539	4656
869.669	4729
869.799	4668
869.929	4790
870.06	4748
870.19	4934
870.32	4911
870.45	4942
870.58	5014
870.71	5117
870.84	5060
870.97	4930
871.1	4900
871.23	5117
871.36	5151
871.489	5029
871.619	5075
871.749	5090
871.879	5132
872.008	5185
872.138	5022
872.267	4953
872.397	4900
872.526	4805
872.656	4721
872.785	4831
872.915	4927
873.044	5018
873.173	4949
873.303	4927
873.432	4968
873.561	5010
873.69	4915
873.819	4847
873.948	4908
874.077	4847
874.206	4767
874.335	4801
874.464	4934
874.593	5056
874.722	5003
874.851	5079
874.979	5071
875.108	5105
875.237	4908
875.365	4877
875.494	4831
875.623	4953
875.751	4812
875.88	4858
876.008	5014
876.136	5010
876.265	5159
876.393	5372
876.521	5265
876.65	5212
876.778	5216
876.906	5052
877.034	5048
877.162	5022
877.29	4946
877.418	5037
877.546	5041
877.674	5094
877.802	5010
877.93	5037
878.058	4946
878.185	4881
878.313	4999
878.441	4911
878.568	4850
878.696	4896
878.824	4953
878.951	5003
879.079	5083
879.206	5299
879.333	5075
879.461	4980
879.588	5045
879.715	5086
879.842	5197
879.97	4980
880.097	4793
880.224	4759
880.351	4812
880.478	4858
880.605	4820
880.732	4797
880.859	5098
880.986	4953
881.112	4858
881.239	4816
881.366	4660
881.493	4588
881.619	4569
881.746	4630
881.872	4702
881.999	4675
882.125	4714
882.252	4744
882.378	4858
882.505	4938
882.631	4744
882.757	4668
882.883	4729
883.01	4763
883.136	4706
883.262	4611
883.388	4599
883.514	4809
883.64	4896
883.766	4801
883.892	4672
884.018	4668
884.143	4892
884.269	5029
884.395	4656
884.52	4641
884.646	4641
884.772	4611
884.897	4577
885.023	4641
885.148	4790
885.274	4862
885.399	4824
885.524	4763
885.65	4675
885.775	4736
885.9	4698
886.025	4896
886.15	4835
886.275	4729
886.4	4675
886.525	4816
886.65	4717
886.775	4733
886.9	4881
887.025	5105
887.149	4831
887.274	4668
887.399	4626
887.523	4660
887.648	4588
887.773	4611
887.897	4809
888.021	4793
888.146	4748
888.27	4866
888.395	4949
888.519	4831
888.643	4843
888.767	4885
888.891	4736
889.015	4637
889.139	4740
889.263	4637
889.387	4820
889.511	4881
889.635	4866
889.759	4702
889.883	4675
890.006	4805
890.13	4877
890.254	4675
890.377	4725
890.501	4603
890.624	4588
890.748	4679
890.871	4558
890.995	4508
891.118	4379
891.241	4561
891.364	4599
891.488	4706
891.611	4523
891.734	4577
891.857	4687
891.98	4634
892.103	4694
892.226	4645
892.349	4546
892.471	4504
892.594	4611
892.717	4660
892.839	4592
892.962	4618
893.085	4687
893.207	4645
893.33	4508
893.452	4569
893.575	4683
893.697	4584
893.819	4858
893.941	4870
894.064	4797
894.186	4668
894.308	4618
894.43	4771
894.552	4854
894.674	4805
894.796	4569
894.918	4694
895.04	4641
895.161	4763
895.283	4706
895.405	4596
895.526	4691
895.648	4698
895.769	4729
895.891	4729
896.012	4767
896.134	4793
896.255	4755
896.376	4637
896.498	4679
896.619	4710
896.74	4607
896.861	4725
896.982	4949
897.103	5102
897.224	4866
897.345	4790
897.466	4721
897.587	4759
897.708	4828
897.828	4862
897.949	4714
898.07	4641
898.19	4698
898.311	4866
898.431	4683
898.552	4820
898.672	4885
898.792	4790
898.913	4767
899.033	4649
899.153	4565
899.273	4459
899.393	4580
899.513	4607
899.633	4565
899.753	4592
899.873	4542
899.993	4596
900.113	4558
900.232	4641
900.352	4554
900.472	4535
900.591	4428
900.711	4542
900.83	4504
900.95	4641
901.069	4733
901.189	4599
901.308	4402
901.427	4379
901.546	4402
901.665	4481
901.784	4561
901.904	4459
902.023	4386
902.141	4223
902.26	4215
902.379	4344
902.498	4299
902.617	4249
902.735	4417
902.854	4409
902.973	4428
903.091	4242
903.21	4238
903.328	4337
903.446	4322
903.565	4303
903.683	4360
903.801	4341
903.919	4466
904.038	4466
904.156	4356
904.274	4500
904.392	4443
904.51	4470
904.627	4554
904.745	4599
904.863	4645
904.981	4428
905.098	4318
905.216	4383
905.334	4440
905.451	4462
905.569	4451
905.686	4577
905.803	4599
905.921	4443
906.038	4569
906.155	4508
906.272	4409
906.389	4519
906.506	4424
906.623	4432
906.74	4409
906.857	4360
906.974	4390
907.091	4596
907.208	4714
907.324	4615
907.441	4554
907.557	4379
907.674	4413
907.79	4405
907.907	4428
908.023	4478
908.139	4565
908.256	4451
908.372	4436
908.488	4470
908.604	4383
908.72	4375
908.836	4455
908.952	4424
909.068	4481
909.184	4599
909.3	4512
909.415	4622
909.531	4565
909.647	4417
909.762	4405
909.878	4352
909.993	4481
910.108	4489
910.224	4432
910.339	4497
910.454	4470
910.57	4424
910.685	4322
910.8	4660
910.915	4607
911.03	4523
911.145	4421
911.259	4371
911.374	4428
911.489	4356
911.604	4318
911.718	4211
911.833	4192
911.947	4169
912.062	4067
912.176	4227
912.291	4238
912.405	4291
912.519	4500
912.633	4508
912.748	4356
912.862	4337
912.976	4219
913.09	4128
913.204	4196
913.318	4284
913.431	4443
913.545	4398
913.659	4493
913.772	4413
913.886	4306
914	4265
914.113	4409
914.226	4466
914.34	4436
914.453	4234
914.566	4519
914.68	4363
914.793	4299
914.906	4169
915.019	4139
915.132	4124
915.245	4211
915.358	4246
915.47	4291
915.583	4325
915.696	4363
915.809	4447
915.921	4481
916.034	4299
916.146	4280
916.259	4314
916.371	4428
916.483	4394
916.595	4291
916.708	4322
916.82	4356
916.932	4367
917.044	4352
917.156	4375
917.268	4318
917.38	4322
917.491	4314
917.603	4394
917.715	4481
917.826	4481
917.938	4394
918.049	4284
918.161	4428
918.272	4538
918.384	4546
918.495	4466
918.606	4322
918.717	4246
918.828	4367
918.939	4432
919.05	4344
919.161	4363
919.272	4177
919.383	4257
919.494	4523
919.604	4698
919.715	4462
919.826	4344
919.936	4405
920.047	4531
920.157	4523
920.267	4691
920.378	4592
920.488	4523
920.598	4759
920.708	4957
920.818	4778
920.928	4767
921.038	5006
921.148	4946
921.258	4626
921.368	4580
921.477	4542
921.587	4447
921.697	4436
921.806	4542
921.916	4459
922.025	4333
922.134	4299
922.244	4268
922.353	4363
922.462	4223
922.571	4147
922.68	4071
922.789	3975
922.898	4059
923.007	4002
923.116	4124
923.224	4071
923.333	4135
923.442	4010
923.55	4017
923.659	4055
923.767	4112
923.876	3972
923.984	4173
924.092	3979
924.201	4116
924.309	4158
924.417	4116
924.525	4093
924.633	4169
924.741	5117
924.849	3884
924.956	4124
925.064	3998
925.172	3979
925.279	3983
925.387	4051
925.494	4067
925.602	4287
925.709	4211
925.816	4078
925.924	4192
926.031	4238
926.138	4188
926.245	4211
926.352	4139
926.459	4242
926.566	4375
926.673	4204
926.779	4090
926.886	4055
926.993	3991
927.099	4010
927.206	3937
927.312	3972
927.419	4063
927.525	4036
927.631	4082
927.737	4013
927.843	4006
927.95	3861
928.056	3964
928.162	3998
928.267	4090
928.373	4725
928.479	4158
928.585	3918
928.69	4032
928.796	4124
928.901	3979
929.007	3884
929.112	4006
929.218	4010
929.323	4029
929.428	3998
929.533	4143
929.638	3945
929.743	3964
929.848	4025
929.953	3991
930.058	3968
930.163	3816
930.267	3850
930.372	3960
930.477	3800
930.581	4093
930.685	3949
930.79	3846
930.894	3896
930.998	3835
931.103	4036
931.207	3743
931.311	3743
931.415	3698
931.519	3534
931.623	3614
