Data from test_V78500241_447.txt Node
Date: Fri Mar 25 16:52:06 CST 2022
User: usil
Spectrometer: V785-0024
Trigger mode: 0
Integration Time (sec): 4.000000E-1
Scans to average: 1
Nonlinearity correction enabled: false
Boxcar width: 0
Storing dark spectrum: false
XAxis mode: Wavelengths
Number of Pixels in Spectrum: 1024
>>>>>Begin Spectral Data<<<<<
801.071	8054
801.214	7944
801.356	7894
801.499	7902
801.641	7845
801.783	7849
801.926	8054
802.068	7944
802.211	8054
802.353	7982
802.496	7837
802.638	7871
802.78	7894
802.923	7887
803.065	7917
803.208	7849
803.35	7921
803.492	8077
803.635	8096
803.777	8005
803.919	8024
804.061	8412
804.204	8100
804.346	8084
804.488	7997
804.63	8081
804.773	7989
804.915	8123
805.057	8324
805.199	8145
805.341	8225
805.483	8301
805.626	8164
805.768	8062
805.91	8142
806.052	8134
806.194	8069
806.336	8336
806.478	8161
806.62	8149
806.762	8065
806.904	8244
807.046	8454
807.188	8317
807.33	8218
807.472	8355
807.614	8138
807.756	8180
807.898	7993
808.04	7951
808.182	7932
808.324	7940
808.465	7894
808.607	8035
808.749	8046
808.891	8145
809.033	8393
809.174	8111
809.316	8046
809.458	8161
809.6	8043
809.741	8096
809.883	8050
810.025	8119
810.166	8119
810.308	8031
810.45	8058
810.591	7826
810.733	7792
810.875	7658
811.016	7590
811.158	7540
811.299	7616
811.441	7715
811.582	7723
811.724	7582
811.865	7655
812.007	7544
812.148	7586
812.29	7601
812.431	7814
812.573	7883
812.714	7978
812.855	8180
812.997	8248
813.138	8431
813.279	8138
813.421	8138
813.562	8084
813.703	7959
813.845	7811
813.986	7514
814.127	7358
814.268	7278
814.41	7202
814.551	7228
814.692	7247
814.833	7027
814.974	7103
815.115	7122
815.256	6993
815.397	6954
815.539	6973
815.68	6859
815.821	6753
815.962	6897
816.103	6833
816.244	6730
816.385	6593
816.526	6642
816.666	6570
816.807	6323
816.948	6502
817.089	6509
817.23	6452
817.371	6319
817.512	6384
817.653	6395
817.793	6376
817.934	6407
818.075	6452
818.216	6441
818.356	6437
818.497	6235
818.638	6091
818.778	6182
818.919	6117
819.06	6148
819.2	6304
819.341	6304
819.481	6308
819.622	6532
819.762	6753
819.903	6757
820.043	6601
820.184	6540
820.324	6544
820.465	6650
820.605	6677
820.746	6635
820.886	6471
821.026	6700
821.167	6711
821.307	6840
821.447	6757
821.588	6601
821.728	6578
821.868	6456
822.008	6380
822.149	6353
822.289	6391
822.429	6186
822.569	6167
822.709	6136
822.849	5931
822.99	5912
823.13	5923
823.27	5954
823.41	5870
823.55	5760
823.69	5775
823.83	5813
823.97	5710
824.11	5562
824.25	5570
824.389	5562
824.529	5592
824.669	5611
824.809	5646
824.949	5718
825.089	5646
825.228	5581
825.368	5474
825.508	5364
825.648	5436
825.787	5414
825.927	5417
826.067	5360
826.206	5360
826.346	5387
826.485	5440
826.625	5448
826.765	5570
826.904	5547
827.044	5280
827.183	5250
827.323	5189
827.462	5330
827.601	5193
827.741	5250
827.88	5284
828.02	5201
828.159	5277
828.298	5345
828.437	5395
828.577	5337
828.716	5501
828.855	5334
828.994	5220
829.134	5235
829.273	5216
829.412	5166
829.551	5170
829.69	5181
829.829	5296
829.968	5372
830.107	5299
830.246	5349
830.385	5174
830.524	5155
830.663	5143
830.802	5010
830.941	4961
831.08	4870
831.219	4995
831.357	5064
831.496	5201
831.635	4930
831.774	4877
831.913	4923
832.051	4786
832.19	4801
832.329	4896
832.467	4740
832.606	4672
832.744	4740
832.883	4763
833.022	4755
833.16	4850
833.299	4873
833.437	4885
833.576	4915
833.714	4923
833.852	4953
833.991	4942
834.129	4976
834.267	5025
834.406	4965
834.544	4991
834.682	5003
834.821	4976
834.959	5216
835.097	5037
835.235	5170
835.373	5166
835.511	5121
835.65	5102
835.788	5075
835.926	4923
836.064	4934
836.202	4984
836.34	5151
836.478	5273
836.615	5170
836.753	5258
836.891	5322
837.029	5269
837.167	5227
837.305	5197
837.443	5201
837.58	5086
837.718	5261
837.856	5269
837.993	5227
838.131	5280
838.269	5201
838.406	5288
838.544	5204
838.681	5064
838.819	4987
838.956	4908
839.094	4984
839.231	5033
839.369	5124
839.506	5436
839.643	5288
839.781	5117
839.918	5064
840.055	5113
840.193	5174
840.33	5151
840.467	5140
840.604	5204
840.742	5455
840.879	5079
841.016	5064
841.153	5174
841.29	5398
841.427	5368
841.564	5337
841.701	5433
841.838	5299
841.975	5265
842.112	5277
842.249	5151
842.385	5132
842.522	5372
842.659	5204
842.796	5212
842.933	5189
843.069	5193
843.206	5181
843.343	5349
843.479	5242
843.616	5265
843.752	5075
843.889	5060
844.025	5265
844.162	5064
844.298	5273
844.435	5094
844.571	5075
844.708	5277
844.844	5330
844.98	5368
845.117	5372
845.253	5159
845.389	5147
845.525	5166
845.661	5181
845.798	5113
845.934	5128
846.07	5105
846.206	5220
846.342	5299
846.478	5227
846.614	5048
846.75	5010
846.886	4965
847.022	5181
847.158	5060
847.294	5151
847.429	5117
847.565	5124
847.701	5311
847.837	4900
847.972	4812
848.108	4987
848.244	4965
848.379	4809
848.515	4809
848.65	4740
848.786	4805
848.921	4828
849.057	4858
849.192	4927
849.328	4835
849.463	4862
849.598	4847
849.734	4820
849.869	4698
850.004	4645
850.14	4694
850.275	4656
850.41	4573
850.545	4679
850.68	4599
850.815	4637
850.95	4687
851.085	4885
851.22	4797
851.355	4706
851.49	4641
851.625	4687
851.76	4710
851.895	4596
852.03	4558
852.165	4672
852.299	4752
852.434	4843
852.569	4782
852.703	4790
852.838	4889
852.973	5010
853.107	4934
853.242	4778
853.376	4660
853.511	4561
853.645	4675
853.78	4843
853.914	4736
854.048	4721
854.183	4679
854.317	4698
854.451	4854
854.585	4683
854.72	4660
854.854	4805
854.988	4626
855.122	4706
855.256	4577
855.39	4649
855.524	4740
855.658	4774
855.792	4740
855.926	4763
856.06	4744
856.194	4790
856.327	4710
856.461	4637
856.595	4660
856.729	4622
856.862	4786
856.996	4748
857.13	4752
857.263	4771
857.397	4809
857.53	4664
857.664	4759
857.797	4778
857.931	4816
858.064	4736
858.197	4755
858.331	4717
858.464	4649
858.597	4531
858.731	4634
858.864	4634
858.997	4615
859.13	4717
859.263	4710
859.396	4752
859.529	4645
859.662	4611
859.795	4573
859.928	4645
860.061	4790
860.194	4809
860.327	4656
860.46	4550
860.592	4740
860.725	4767
860.858	4755
860.99	4634
861.123	4599
861.256	4554
861.388	4626
861.521	5471
861.653	4523
861.786	4474
861.918	4462
862.05	4561
862.183	4603
862.315	4630
862.447	4626
862.58	4599
862.712	4398
862.844	4379
862.976	4512
863.108	4481
863.24	4797
863.372	4417
863.504	4443
863.636	4474
863.768	4535
863.9	4497
864.032	4375
864.164	4409
864.296	4451
864.428	4592
864.559	4565
864.691	4584
864.823	4546
864.954	4519
865.086	4489
865.217	4485
865.349	4478
865.48	4489
865.612	4577
865.743	4702
865.875	4497
866.006	4462
866.137	4500
866.269	4462
866.4	4474
866.531	4466
866.662	4466
866.793	4424
866.924	4440
867.055	4554
867.186	4527
867.317	4440
867.448	4462
867.579	4409
867.71	4398
867.841	4371
867.972	4523
868.103	4474
868.233	4440
868.364	4459
868.495	4577
868.625	4664
868.756	4801
868.886	4622
869.017	4618
869.147	4812
869.278	4778
869.408	4683
869.539	4675
869.669	4782
869.799	4717
869.929	4797
870.06	4767
870.19	4984
870.32	4930
870.45	4968
870.58	5045
870.71	5117
870.84	5045
870.97	4991
871.1	4942
871.23	5136
871.36	5197
871.489	5079
871.619	5181
871.749	5151
871.879	5155
872.008	5231
872.138	5064
872.267	4987
872.397	4900
872.526	4858
872.656	4778
872.785	4877
872.915	4991
873.044	5025
873.173	4934
873.303	4961
873.432	5003
873.561	4987
873.69	4957
873.819	4911
873.948	4896
874.077	4828
874.206	4793
874.335	4820
874.464	4885
874.593	5064
874.722	5003
874.851	5109
874.979	5060
875.108	5037
875.237	4957
875.365	4900
875.494	4889
875.623	4995
875.751	4877
875.88	4904
876.008	4999
876.136	5033
876.265	5212
876.393	5341
876.521	5273
876.65	5265
876.778	5170
876.906	5094
877.034	4995
877.162	5048
877.29	4999
877.418	5086
877.546	5071
877.674	5056
877.802	5029
877.93	5041
878.058	4999
878.185	4896
878.313	4980
878.441	4995
878.568	4805
878.696	4961
878.824	5033
878.951	5045
879.079	5151
879.206	5299
879.333	5109
879.461	5079
879.588	4965
879.715	5174
879.842	5208
879.97	5025
880.097	4778
880.224	4763
880.351	4824
880.478	4866
880.605	4828
880.732	4797
880.859	5037
880.986	4889
881.112	4968
881.239	4854
881.366	4710
881.493	4641
881.619	4580
881.746	4641
881.872	4683
881.999	4660
882.125	4706
882.252	4767
882.378	4809
882.505	4995
882.631	4843
882.757	4691
882.883	4778
883.01	4763
883.136	4710
883.262	4565
883.388	4630
883.514	4782
883.64	4881
883.766	4805
883.892	4626
884.018	4816
884.143	4946
884.269	5075
884.395	4706
884.52	4660
884.646	4664
884.772	4630
884.897	4626
885.023	4702
885.148	4847
885.274	4911
885.399	4801
885.524	4736
885.65	4687
885.775	4744
885.9	4710
886.025	4942
886.15	4797
886.275	4748
886.4	4679
886.525	4733
886.65	4729
886.775	4679
886.9	4919
887.025	5136
887.149	4812
887.274	4664
887.399	4641
887.523	4637
887.648	4592
887.773	4577
887.897	4774
888.021	4786
888.146	4710
888.27	4828
888.395	4915
888.519	4782
888.643	4843
888.767	4835
888.891	4691
889.015	4656
889.139	4664
889.263	4580
889.387	4793
889.511	4892
889.635	4839
889.759	4656
889.883	4641
890.006	4782
890.13	4854
890.254	4618
890.377	4660
890.501	4584
890.624	4512
890.748	4725
890.871	4550
890.995	4493
891.118	4394
891.241	4500
891.364	4535
891.488	4641
891.611	4516
891.734	4542
891.857	4592
891.98	4561
892.103	4702
892.226	4626
892.349	4538
892.471	4440
892.594	4531
892.717	4580
892.839	4649
892.962	4641
893.085	4702
893.207	4599
893.33	4500
893.452	4512
893.575	4649
893.697	4561
893.819	4816
893.941	4828
894.064	4831
894.186	4611
894.308	4580
894.43	4736
894.552	4824
894.674	4771
894.796	4596
894.918	4588
895.04	4554
895.161	4702
895.283	4710
895.405	4630
895.526	4615
895.648	4687
895.769	4698
895.891	4729
896.012	4767
896.134	4717
896.255	4664
896.376	4694
896.498	4607
896.619	4710
896.74	4645
896.861	4710
896.982	4942
897.103	5083
897.224	4820
897.345	4790
897.466	4641
897.587	4793
897.708	4896
897.828	4790
897.949	4675
898.07	4573
898.19	4702
898.311	4839
898.431	4675
898.552	4759
898.672	4866
898.792	4816
898.913	4782
899.033	4656
899.153	4485
899.273	4421
899.393	4535
899.513	4538
899.633	4546
899.753	4573
899.873	4558
899.993	4615
900.113	4519
900.232	4588
900.352	4470
900.472	4485
900.591	4413
900.711	4485
900.83	4500
900.95	4607
901.069	4736
901.189	4531
901.308	4386
901.427	4337
901.546	4421
901.665	4481
901.784	4561
901.904	4417
902.023	4344
902.141	4200
902.26	4177
902.379	4329
902.498	4261
902.617	4188
902.735	4386
902.854	4409
902.973	4337
903.091	4181
903.21	4280
903.328	4261
903.446	4230
903.565	4265
903.683	4344
903.801	4287
903.919	4383
904.038	4428
904.156	4371
904.274	4443
904.392	4371
904.51	4466
904.627	4470
904.745	4626
904.863	4630
904.981	4424
905.098	4341
905.216	4390
905.334	4459
905.451	4417
905.569	4436
905.686	4592
905.803	4592
905.921	4405
906.038	4531
906.155	4504
906.272	4413
906.389	4474
906.506	4360
906.623	4436
906.74	4451
906.857	4344
906.974	4424
907.091	4584
907.208	4679
907.324	4645
907.441	4500
907.557	4394
907.674	4348
907.79	4329
907.907	4341
908.023	4489
908.139	4531
908.256	4405
908.372	4470
908.488	4447
908.604	4348
908.72	4363
908.836	4386
908.952	4402
909.068	4447
909.184	4599
909.3	4504
909.415	4603
909.531	4611
909.647	4371
909.762	4329
909.878	4367
909.993	4405
910.108	4417
910.224	4440
910.339	4462
910.454	4398
910.57	4356
910.685	4299
910.8	4679
910.915	4584
911.03	4497
911.145	4333
911.259	4310
911.374	4379
911.489	4280
911.604	4325
911.718	4200
911.833	4219
911.947	4071
912.062	4055
912.176	4230
912.291	4280
912.405	4249
912.519	4516
912.633	4493
912.748	4360
912.862	4344
912.976	4207
913.09	4131
913.204	4200
913.318	4257
913.431	4337
913.545	4375
913.659	4462
913.772	4363
913.886	4261
914	4215
914.113	4341
914.226	4436
914.34	4390
914.453	4215
914.566	4405
914.68	4303
914.793	4325
914.906	4124
915.019	4105
915.132	4124
915.245	4166
915.358	4257
915.47	4246
915.583	4272
915.696	4280
915.809	4440
915.921	4413
916.034	4257
916.146	4295
916.259	4215
916.371	4386
916.483	4379
916.595	4265
916.708	4352
916.82	4356
916.932	4348
917.044	4379
917.156	4371
917.268	4261
917.38	4246
917.491	4318
917.603	4310
917.715	4421
917.826	4428
917.938	4379
918.049	4272
918.161	4379
918.272	4531
918.384	4584
918.495	4485
918.606	4333
918.717	4280
918.828	4348
918.939	4333
919.05	4242
919.161	4306
919.272	4181
919.383	4253
919.494	4478
919.604	4637
919.715	4398
919.826	4352
919.936	4379
920.047	4497
920.157	4489
920.267	4691
920.378	4577
920.488	4531
920.598	4717
920.708	4900
920.818	4763
920.928	4816
921.038	4938
921.148	4938
921.258	4645
921.368	4512
921.477	4489
921.587	4485
921.697	4367
921.806	4535
921.916	4451
922.025	4322
922.134	4249
922.244	4215
922.353	4314
922.462	4223
922.571	4112
922.68	4029
922.789	4017
922.898	4071
923.007	3994
923.116	4120
923.224	4048
923.333	4059
923.442	4002
923.55	3987
923.659	4051
923.767	4147
923.876	4017
923.984	4128
924.092	3987
924.201	4105
924.309	4063
924.417	4116
924.525	4048
924.633	4105
924.741	5052
924.849	3926
924.956	4131
925.064	3975
925.172	3945
925.279	3987
925.387	4074
925.494	4063
925.602	4185
925.709	4200
925.816	4032
925.924	4169
926.031	4200
926.138	4204
926.245	4204
926.352	4116
926.459	4303
926.566	4318
926.673	4135
926.779	4147
926.886	4093
926.993	3983
927.099	3972
927.206	3960
927.312	3975
927.419	4093
927.525	4055
927.631	4101
927.737	3953
927.843	3953
927.95	3827
928.056	3956
928.162	4006
928.267	4082
928.373	4710
928.479	4090
928.585	3865
928.69	4017
928.796	4097
928.901	3987
929.007	3846
929.112	4006
929.218	4013
929.323	3964
929.428	3934
929.533	4124
929.638	3896
929.743	3960
929.848	4063
929.953	4002
930.058	3922
930.163	3759
930.267	3850
930.372	4006
930.477	3827
930.581	4090
930.685	3945
930.79	3823
930.894	3911
930.998	3892
931.103	4025
931.207	3766
931.311	3713
931.415	3648
931.519	3511
931.623	3549
