Data from test_V78500241_1679.txt Node
Date: Fri Mar 25 17:00:40 CST 2022
User: usil
Spectrometer: V785-0024
Trigger mode: 0
Integration Time (sec): 4.000000E-1
Scans to average: 1
Nonlinearity correction enabled: false
Boxcar width: 0
Storing dark spectrum: false
XAxis mode: Wavelengths
Number of Pixels in Spectrum: 1024
>>>>>Begin Spectral Data<<<<<
801.071	7936
801.214	7974
801.356	7890
801.499	7860
801.641	7772
801.783	7776
801.926	7925
802.068	7944
802.211	7951
802.353	7955
802.496	7871
802.638	7856
802.78	7925
802.923	7951
803.065	7864
803.208	7887
803.35	7974
803.492	8111
803.635	8191
803.777	7928
803.919	8161
804.061	8431
804.204	8176
804.346	8062
804.488	7982
804.63	8088
804.773	7993
804.915	8130
805.057	8275
805.199	8183
805.341	8195
805.483	8275
805.626	8176
805.768	8092
805.91	8172
806.052	8225
806.194	8130
806.336	8275
806.478	8065
806.62	7978
806.762	8126
806.904	8248
807.046	8480
807.188	8358
807.33	8248
807.472	8309
807.614	8180
807.756	8214
807.898	7986
808.04	7875
808.182	7917
808.324	7906
808.465	7932
808.607	8084
808.749	8138
808.891	8157
809.033	8279
809.174	8180
809.316	8035
809.458	7967
809.6	7944
809.741	8069
809.883	8054
810.025	8043
810.166	8043
810.308	8046
810.45	7932
810.591	7864
810.733	7795
810.875	7670
811.016	7502
811.158	7510
811.299	7578
811.441	7666
811.582	7685
811.724	7556
811.865	7521
812.007	7548
812.148	7556
812.29	7605
812.431	7757
812.573	7974
812.714	7993
812.855	8031
812.997	8214
813.138	8279
813.279	8183
813.421	8046
813.562	7967
813.703	7826
813.845	7712
813.986	7434
814.127	7190
814.268	7183
814.41	7156
814.551	7183
814.692	7190
814.833	7057
814.974	7118
815.115	7019
815.256	6947
815.397	6905
815.539	6977
815.68	6791
815.821	6741
815.962	6890
816.103	6722
816.244	6707
816.385	6620
816.526	6589
816.666	6471
816.807	6350
816.948	6418
817.089	6441
817.23	6445
817.371	6403
817.512	6334
817.653	6372
817.793	6342
817.934	6403
818.075	6483
818.216	6429
818.356	6361
818.497	6220
818.638	6098
818.778	6155
818.919	6140
819.06	6102
819.2	6342
819.341	6315
819.481	6380
819.622	6509
819.762	6760
819.903	6642
820.043	6593
820.184	6585
820.324	6608
820.465	6688
820.605	6639
820.746	6582
820.886	6506
821.026	6650
821.167	6700
821.307	6760
821.447	6760
821.588	6642
821.728	6582
821.868	6456
822.008	6342
822.149	6407
822.289	6342
822.429	6190
822.569	6057
822.709	6079
822.849	5935
822.99	5908
823.13	5920
823.27	5889
823.41	5786
823.55	5828
823.69	5729
823.83	5783
823.97	5623
824.11	5528
824.25	5448
824.389	5577
824.529	5589
824.669	5539
824.809	5562
824.949	5699
825.089	5638
825.228	5554
825.368	5398
825.508	5299
825.648	5292
825.787	5368
825.927	5406
826.067	5227
826.206	5261
826.346	5402
826.485	5410
826.625	5452
826.765	5474
826.904	5471
827.044	5231
827.183	5170
827.323	5098
827.462	5265
827.601	5162
827.741	5140
827.88	5204
828.02	5121
828.159	5208
828.298	5273
828.437	5334
828.577	5223
828.716	5493
828.855	5322
828.994	5159
829.134	5140
829.273	5174
829.412	5121
829.551	5105
829.69	5083
829.829	5223
829.968	5322
830.107	5258
830.246	5284
830.385	5151
830.524	5102
830.663	5071
830.802	4972
830.941	4854
831.08	4904
831.219	4911
831.357	4961
831.496	5136
831.635	4949
831.774	4786
831.913	4801
832.051	4679
832.19	4725
832.329	4839
832.467	4733
832.606	4588
832.744	4691
832.883	4736
833.022	4729
833.16	4816
833.299	4793
833.437	4843
833.576	4805
833.714	4835
833.852	4831
833.991	4896
834.129	4995
834.267	4911
834.406	4904
834.544	4957
834.682	4991
834.821	4972
834.959	5178
835.097	4968
835.235	5109
835.373	5014
835.511	5124
835.65	5037
835.788	5006
835.926	4858
836.064	4828
836.202	4885
836.34	5159
836.478	5197
836.615	5064
836.753	5204
836.891	5277
837.029	5242
837.167	5143
837.305	5136
837.443	5102
837.58	5048
837.718	5216
837.856	5132
837.993	5162
838.131	5201
838.269	5170
838.406	5201
838.544	5159
838.681	5022
838.819	5018
838.956	4908
839.094	4870
839.231	4942
839.369	5083
839.506	5406
839.643	5265
839.781	5033
839.918	5003
840.055	5071
840.193	5048
840.33	5060
840.467	5136
840.604	5151
840.742	5471
840.879	5041
841.016	5079
841.153	5140
841.29	5364
841.427	5357
841.564	5311
841.701	5322
841.838	5159
841.975	5201
842.112	5280
842.249	5121
842.385	5086
842.522	5258
842.659	5128
842.796	5128
842.933	5201
843.069	5117
843.206	5174
843.343	5299
843.479	5204
843.616	5265
843.752	5014
843.889	5022
844.025	5231
844.162	5006
844.298	5189
844.435	5098
844.571	5022
844.708	5151
844.844	5322
844.98	5330
845.117	5273
845.253	5143
845.389	5086
845.525	5121
845.661	5105
845.798	5067
845.934	5166
846.07	4984
846.206	5189
846.342	5269
846.478	5159
846.614	4946
846.75	4938
846.886	4927
847.022	5102
847.158	5067
847.294	5124
847.429	5086
847.565	5010
847.701	5261
847.837	4839
847.972	4778
848.108	4965
848.244	4892
848.379	4740
848.515	4702
848.65	4687
848.786	4755
848.921	4755
849.057	4824
849.192	4889
849.328	4793
849.463	4870
849.598	4759
849.734	4763
849.869	4687
850.004	4618
850.14	4637
850.275	4596
850.41	4550
850.545	4489
850.68	4653
850.815	4630
850.95	4603
851.085	4850
851.22	4733
851.355	4653
851.49	4649
851.625	4611
851.76	4656
851.895	4569
852.03	4523
852.165	4656
852.299	4698
852.434	4782
852.569	4767
852.703	4786
852.838	4881
852.973	4984
853.107	4889
853.242	4698
853.376	4649
853.511	4542
853.645	4634
853.78	4755
853.914	4679
854.048	4679
854.183	4660
854.317	4653
854.451	4812
854.585	4679
854.72	4592
854.854	4752
854.988	4588
855.122	4596
855.256	4512
855.39	4668
855.524	4782
855.658	4687
855.792	4668
855.926	4710
856.06	4782
856.194	4786
856.327	4691
856.461	4580
856.595	4596
856.729	4611
856.862	4778
856.996	4691
857.13	4725
857.263	4744
857.397	4801
857.53	4679
857.664	4725
857.797	4759
857.931	4850
858.064	4729
858.197	4691
858.331	4622
858.464	4569
858.597	4531
858.731	4577
858.864	4596
858.997	4615
859.13	4637
859.263	4656
859.396	4660
859.529	4538
859.662	4592
859.795	4546
859.928	4584
860.061	4748
860.194	4679
860.327	4615
860.46	4611
860.592	4736
860.725	4698
860.858	4706
860.99	4554
861.123	4497
861.256	4542
861.388	4634
861.521	5406
861.653	4531
861.786	4428
861.918	4443
862.05	4542
862.183	4565
862.315	4592
862.447	4645
862.58	4531
862.712	4405
862.844	4356
862.976	4466
863.108	4466
863.24	4736
863.372	4325
863.504	4436
863.636	4375
863.768	4447
863.9	4417
864.032	4356
864.164	4356
864.296	4497
864.428	4531
864.559	4512
864.691	4531
864.823	4504
864.954	4447
865.086	4432
865.217	4451
865.349	4390
865.48	4421
865.612	4497
865.743	4622
865.875	4466
866.006	4417
866.137	4493
866.269	4447
866.4	4417
866.531	4417
866.662	4398
866.793	4375
866.924	4417
867.055	4485
867.186	4424
867.317	4466
867.448	4360
867.579	4371
867.71	4375
867.841	4314
867.972	4428
868.103	4459
868.233	4432
868.364	4390
868.495	4466
868.625	4645
868.756	4759
868.886	4546
869.017	4622
869.147	4740
869.278	4706
869.408	4683
869.539	4615
869.669	4675
869.799	4653
869.929	4714
870.06	4729
870.19	4934
870.32	4942
870.45	4965
870.58	4957
870.71	5060
870.84	5083
870.97	4934
871.1	4885
871.23	5159
871.36	5124
871.489	5029
871.619	5109
871.749	5041
871.879	5147
872.008	5140
872.138	5086
872.267	4957
872.397	4908
872.526	4790
872.656	4733
872.785	4816
872.915	4919
873.044	5029
873.173	4908
873.303	4995
873.432	4919
873.561	4957
873.69	4900
873.819	4870
873.948	4911
874.077	4809
874.206	4774
874.335	4824
874.464	4930
874.593	5006
874.722	4946
874.851	5071
874.979	5029
875.108	5052
875.237	4938
875.365	4870
875.494	4866
875.623	4968
875.751	4843
875.88	4858
876.008	4984
876.136	5022
876.265	5201
876.393	5353
876.521	5227
876.65	5242
876.778	5140
876.906	5064
877.034	4984
877.162	5056
877.29	5014
877.418	5029
877.546	5060
877.674	5060
877.802	5048
877.93	5029
878.058	4911
878.185	4896
878.313	4961
878.441	4915
878.568	4774
878.696	4862
878.824	4961
878.951	4968
879.079	5083
879.206	5269
879.333	5121
879.461	4946
879.588	5003
879.715	5132
879.842	5204
879.97	4980
880.097	4809
880.224	4687
880.351	4801
880.478	4812
880.605	4767
880.732	4752
880.859	5045
880.986	4911
881.112	4908
881.239	4793
881.366	4637
881.493	4630
881.619	4603
881.746	4611
881.872	4618
881.999	4641
882.125	4672
882.252	4797
882.378	4828
882.505	4911
882.631	4793
882.757	4710
882.883	4755
883.01	4763
883.136	4706
883.262	4592
883.388	4603
883.514	4839
883.64	4892
883.766	4778
883.892	4664
884.018	4672
884.143	4862
884.269	4949
884.395	4656
884.52	4599
884.646	4649
884.772	4550
884.897	4542
885.023	4641
885.148	4744
885.274	4862
885.399	4805
885.524	4790
885.65	4698
885.775	4698
885.9	4694
886.025	4847
886.15	4767
886.275	4698
886.4	4603
886.525	4702
886.65	4702
886.775	4672
886.9	4949
887.025	5048
887.149	4831
887.274	4660
887.399	4596
887.523	4554
887.648	4561
887.773	4580
887.897	4748
888.021	4809
888.146	4656
888.27	4793
888.395	4885
888.519	4847
888.643	4824
888.767	4858
888.891	4630
889.015	4584
889.139	4588
889.263	4561
889.387	4778
889.511	4839
889.635	4820
889.759	4630
889.883	4603
890.006	4721
890.13	4805
890.254	4622
890.377	4656
890.501	4519
890.624	4523
890.748	4626
890.871	4497
890.995	4432
891.118	4371
891.241	4516
891.364	4497
891.488	4634
891.611	4481
891.734	4580
891.857	4573
891.98	4558
892.103	4626
892.226	4573
892.349	4565
892.471	4424
892.594	4538
892.717	4577
892.839	4573
892.962	4584
893.085	4668
893.207	4630
893.33	4455
893.452	4504
893.575	4615
893.697	4603
893.819	4786
893.941	4850
894.064	4721
894.186	4508
894.308	4546
894.43	4672
894.552	4801
894.674	4771
894.796	4577
894.918	4580
895.04	4561
895.161	4630
895.283	4653
895.405	4577
895.526	4630
895.648	4691
895.769	4729
895.891	4679
896.012	4687
896.134	4714
896.255	4634
896.376	4611
896.498	4649
896.619	4672
896.74	4580
896.861	4656
896.982	4942
897.103	5071
897.224	4831
897.345	4717
897.466	4656
897.587	4698
897.708	4854
897.828	4778
897.949	4691
898.07	4565
898.19	4611
898.311	4786
898.431	4668
898.552	4721
898.672	4786
898.792	4748
898.913	4698
899.033	4641
899.153	4516
899.273	4417
899.393	4516
899.513	4504
899.633	4527
899.753	4516
899.873	4523
899.993	4577
900.113	4546
900.232	4599
900.352	4535
900.472	4474
900.591	4383
900.711	4443
900.83	4424
900.95	4637
901.069	4698
901.189	4527
901.308	4322
901.427	4299
901.546	4421
901.665	4455
901.784	4474
901.904	4375
902.023	4398
902.141	4162
902.26	4173
902.379	4272
902.498	4227
902.617	4238
902.735	4341
902.854	4394
902.973	4299
903.091	4246
903.21	4219
903.328	4287
903.446	4268
903.565	4253
903.683	4325
903.801	4306
903.919	4440
904.038	4398
904.156	4291
904.274	4459
904.392	4436
904.51	4413
904.627	4470
904.745	4584
904.863	4615
904.981	4375
905.098	4352
905.216	4356
905.334	4421
905.451	4451
905.569	4417
905.686	4569
905.803	4554
905.921	4352
906.038	4523
906.155	4443
906.272	4379
906.389	4447
906.506	4348
906.623	4398
906.74	4402
906.857	4303
906.974	4440
907.091	4542
907.208	4656
907.324	4554
907.441	4459
907.557	4333
907.674	4337
907.79	4360
907.907	4402
908.023	4478
908.139	4489
908.256	4436
908.372	4428
908.488	4424
908.604	4325
908.72	4356
908.836	4299
908.952	4344
909.068	4455
909.184	4538
909.3	4459
909.415	4592
909.531	4497
909.647	4341
909.762	4352
909.878	4348
909.993	4424
910.108	4436
910.224	4440
910.339	4478
910.454	4443
910.57	4337
910.685	4280
910.8	4626
910.915	4577
911.03	4508
911.145	4356
911.259	4341
911.374	4375
911.489	4314
911.604	4246
911.718	4188
911.833	4223
911.947	4051
912.062	4059
912.176	4188
912.291	4211
912.405	4257
912.519	4481
912.633	4466
912.748	4371
912.862	4325
912.976	4215
913.09	4105
913.204	4162
913.318	4265
913.431	4306
913.545	4360
913.659	4447
913.772	4333
913.886	4261
914	4261
914.113	4337
914.226	4421
914.34	4409
914.453	4185
914.566	4447
914.68	4257
914.793	4352
914.906	4143
915.019	4139
915.132	4040
915.245	4166
915.358	4200
915.47	4215
915.583	4284
915.696	4287
915.809	4405
915.921	4390
916.034	4276
916.146	4257
916.259	4196
916.371	4390
916.483	4295
916.595	4265
916.708	4272
916.82	4322
916.932	4348
917.044	4329
917.156	4268
917.268	4234
917.38	4287
917.491	4291
917.603	4295
917.715	4394
917.826	4455
917.938	4337
918.049	4219
918.161	4402
918.272	4504
918.384	4542
918.495	4413
918.606	4318
918.717	4268
918.828	4337
918.939	4337
919.05	4280
919.161	4333
919.272	4131
919.383	4242
919.494	4451
919.604	4645
919.715	4394
919.826	4375
919.936	4352
920.047	4580
920.157	4504
920.267	4714
920.378	4538
920.488	4470
920.598	4702
920.708	4862
920.818	4729
920.928	4790
921.038	4957
921.148	4934
921.258	4653
921.368	4577
921.477	4455
921.587	4493
921.697	4409
921.806	4588
921.916	4409
922.025	4272
922.134	4234
922.244	4215
922.353	4337
922.462	4150
922.571	4116
922.68	3975
922.789	3956
922.898	3998
923.007	3949
923.116	4082
923.224	4059
923.333	4051
923.442	3991
923.55	3983
923.659	4032
923.767	4105
923.876	4032
923.984	4078
924.092	3979
924.201	4036
924.309	4059
924.417	4131
924.525	4078
924.633	4109
924.741	4877
924.849	3907
924.956	4116
925.064	3972
925.172	3937
925.279	3953
925.387	4025
925.494	4029
925.602	4219
925.709	4173
925.816	4002
925.924	4150
926.031	4253
926.138	4112
926.245	4188
926.352	4071
926.459	4219
926.566	4325
926.673	4131
926.779	4090
926.886	4048
926.993	3983
927.099	3960
927.206	3926
927.312	3934
927.419	4040
927.525	4002
927.631	4029
927.737	3945
927.843	3903
927.95	3857
928.056	3922
928.162	3994
928.267	4059
928.373	4626
928.479	4116
928.585	3846
928.69	4040
928.796	4082
928.901	3956
929.007	3816
929.112	3998
929.218	3941
929.323	3873
929.428	3945
929.533	4131
929.638	3884
929.743	3945
929.848	4017
929.953	3983
930.058	3922
930.163	3797
930.267	3808
930.372	3945
930.477	3823
930.581	4029
930.685	3937
930.79	3816
930.894	3846
930.998	3869
931.103	4071
931.207	3694
931.311	3671
931.415	3705
931.519	3496
931.623	3519
