Data from test_V78500241_32.txt Node
Date: Fri Mar 25 16:49:13 CST 2022
User: usil
Spectrometer: V785-0024
Trigger mode: 0
Integration Time (sec): 4.000000E-1
Scans to average: 1
Nonlinearity correction enabled: false
Boxcar width: 0
Storing dark spectrum: false
XAxis mode: Wavelengths
Number of Pixels in Spectrum: 1024
>>>>>Begin Spectral Data<<<<<
801.071	8020
801.214	8084
801.356	7947
801.499	7921
801.641	7890
801.783	7902
801.926	8058
802.068	8024
802.211	8031
802.353	8031
802.496	7875
802.638	7925
802.78	7959
802.923	7955
803.065	7936
803.208	7852
803.35	8039
803.492	8088
803.635	8172
803.777	8001
803.919	8164
804.061	8450
804.204	8187
804.346	8069
804.488	8035
804.63	8138
804.773	7993
804.915	8107
805.057	8298
805.199	8183
805.341	8263
805.483	8328
805.626	8309
805.768	8180
805.91	8195
806.052	8149
806.194	8062
806.336	8332
806.478	8252
806.62	8172
806.762	8225
806.904	8328
807.046	8465
807.188	8381
807.33	8305
807.472	8393
807.614	8161
807.756	8138
807.898	8027
808.04	7978
808.182	7925
808.324	7932
808.465	7925
808.607	8069
808.749	8149
808.891	8218
809.033	8267
809.174	8138
809.316	8092
809.458	8001
809.6	8005
809.741	8020
809.883	8043
810.025	8123
810.166	8043
810.308	8008
810.45	8054
810.591	7906
810.733	7788
810.875	7761
811.016	7510
811.158	7567
811.299	7639
811.441	7814
811.582	7712
811.724	7613
811.865	7571
812.007	7670
812.148	7628
812.29	7689
812.431	7761
812.573	7845
812.714	8027
812.855	8157
812.997	8214
813.138	8332
813.279	8225
813.421	8115
813.562	8043
813.703	7902
813.845	7772
813.986	7499
814.127	7301
814.268	7308
814.41	7278
814.551	7202
814.692	7251
814.833	7110
814.974	7126
815.115	7179
815.256	7019
815.397	6932
815.539	6916
815.68	6848
815.821	6818
815.962	6939
816.103	6825
816.244	6700
816.385	6711
816.526	6681
816.666	6547
816.807	6361
816.948	6502
817.089	6483
817.23	6448
817.371	6395
817.512	6407
817.653	6429
817.793	6353
817.934	6433
818.075	6456
818.216	6498
818.356	6486
818.497	6285
818.638	6144
818.778	6235
818.919	6266
819.06	6209
819.2	6304
819.341	6372
819.481	6426
819.622	6673
819.762	6764
819.903	6711
820.043	6677
820.184	6642
820.324	6700
820.465	6734
820.605	6715
820.746	6646
820.886	6604
821.026	6757
821.167	6764
821.307	6867
821.447	6779
821.588	6665
821.728	6635
821.868	6574
822.008	6365
822.149	6376
822.289	6361
822.429	6262
822.569	6117
822.709	6178
822.849	5984
822.99	5961
823.13	5980
823.27	5954
823.41	5821
823.55	5805
823.69	5798
823.83	5844
823.97	5710
824.11	5611
824.25	5596
824.389	5649
824.529	5596
824.669	5570
824.809	5627
824.949	5657
825.089	5688
825.228	5604
825.368	5410
825.508	5421
825.648	5368
825.787	5478
825.927	5410
826.067	5360
826.206	5318
826.346	5467
826.485	5440
826.625	5448
826.765	5604
826.904	5516
827.044	5341
827.183	5277
827.323	5193
827.462	5273
827.601	5208
827.741	5208
827.88	5280
828.02	5140
828.159	5277
828.298	5318
828.437	5410
828.577	5315
828.716	5566
828.855	5410
828.994	5185
829.134	5231
829.273	5193
829.412	5170
829.551	5151
829.69	5227
829.829	5280
829.968	5410
830.107	5315
830.246	5299
830.385	5242
830.524	5170
830.663	5117
830.802	5025
830.941	4972
831.08	4987
831.219	5079
831.357	5029
831.496	5193
831.635	5033
831.774	4873
831.913	4889
832.051	4812
832.19	4740
832.329	4866
832.467	4714
832.606	4679
832.744	4774
832.883	4752
833.022	4801
833.16	4873
833.299	4877
833.437	4828
833.576	4858
833.714	4892
833.852	4900
833.991	4953
834.129	5037
834.267	4957
834.406	4961
834.544	4980
834.682	5033
834.821	5018
834.959	5201
835.097	5010
835.235	5147
835.373	5140
835.511	5159
835.65	5071
835.788	5121
835.926	4957
836.064	4930
836.202	4953
836.34	5216
836.478	5284
836.615	5143
836.753	5265
836.891	5326
837.029	5277
837.167	5201
837.305	5155
837.443	5174
837.58	5143
837.718	5296
837.856	5212
837.993	5189
838.131	5273
838.269	5231
838.406	5246
838.544	5178
838.681	5052
838.819	5052
838.956	4919
839.094	4949
839.231	5018
839.369	5086
839.506	5467
839.643	5322
839.781	5090
839.918	5075
840.055	5079
840.193	5113
840.33	5128
840.467	5181
840.604	5235
840.742	5478
840.879	5121
841.016	5079
841.153	5155
841.29	5429
841.427	5364
841.564	5341
841.701	5376
841.838	5288
841.975	5242
842.112	5334
842.249	5151
842.385	5132
842.522	5372
842.659	5269
842.796	5124
842.933	5212
843.069	5201
843.206	5193
843.343	5322
843.479	5296
843.616	5288
843.752	5132
843.889	5041
844.025	5258
844.162	5075
844.298	5254
844.435	5098
844.571	5086
844.708	5231
844.844	5326
844.98	5406
845.117	5299
845.253	5212
845.389	5147
845.525	5197
845.661	5204
845.798	5060
845.934	5220
846.07	5098
846.206	5261
846.342	5330
846.478	5216
846.614	5064
846.75	5018
846.886	4987
847.022	5189
847.158	5033
847.294	5113
847.429	5166
847.565	5105
847.701	5402
847.837	4911
847.972	4873
848.108	5010
848.244	5006
848.379	4790
848.515	4816
848.65	4725
848.786	4736
848.921	4805
849.057	5003
849.192	4961
849.328	4809
849.463	4927
849.598	4843
849.734	4797
849.869	4748
850.004	4691
850.14	4706
850.275	4622
850.41	4611
850.545	4577
850.68	4649
850.815	4649
850.95	4603
851.085	4896
851.22	4801
851.355	4767
851.49	4645
851.625	4675
851.76	4672
851.895	4577
852.03	4584
852.165	4721
852.299	4835
852.434	4790
852.569	4793
852.703	4782
852.838	4858
852.973	5010
853.107	4946
853.242	4763
853.376	4702
853.511	4584
853.645	4668
853.78	4881
853.914	4729
854.048	4725
854.183	4717
854.317	4763
854.451	4908
854.585	4675
854.72	4611
854.854	4824
854.988	4622
855.122	4679
855.256	4558
855.39	4706
855.524	4778
855.658	4793
855.792	4725
855.926	4752
856.06	4782
856.194	4759
856.327	4687
856.461	4649
856.595	4668
856.729	4660
856.862	4809
856.996	4755
857.13	4778
857.263	4805
857.397	4828
857.53	4698
857.664	4748
857.797	4839
857.931	4797
858.064	4748
858.197	4771
858.331	4694
858.464	4653
858.597	4561
858.731	4672
858.864	4691
858.997	4630
859.13	4683
859.263	4729
859.396	4710
859.529	4672
859.662	4611
859.795	4622
859.928	4653
860.061	4801
860.194	4820
860.327	4664
860.46	4607
860.592	4733
860.725	4752
860.858	4767
860.99	4649
861.123	4546
861.256	4542
861.388	4660
861.521	5467
861.653	4508
861.786	4466
861.918	4493
862.05	4558
862.183	4630
862.315	4656
862.447	4725
862.58	4558
862.712	4466
862.844	4409
862.976	4466
863.108	4508
863.24	4949
863.372	4367
863.504	4405
863.636	4478
863.768	4508
863.9	4436
864.032	4405
864.164	4459
864.296	4504
864.428	4573
864.559	4607
864.691	4584
864.823	4569
864.954	4538
865.086	4531
865.217	4470
865.349	4436
865.48	4481
865.612	4523
865.743	4626
865.875	4512
866.006	4497
866.137	4516
866.269	4508
866.4	4512
866.531	4470
866.662	4402
866.793	4455
866.924	4474
867.055	4535
867.186	4497
867.317	4470
867.448	4398
867.579	4402
867.71	4440
867.841	4367
867.972	4500
868.103	4508
868.233	4485
868.364	4535
868.495	4554
868.625	4694
868.756	4843
868.886	4577
869.017	4649
869.147	4812
869.278	4790
869.408	4653
869.539	4675
869.669	4782
869.799	4672
869.929	4828
870.06	4763
870.19	4980
870.32	4976
870.45	4972
870.58	5060
870.71	5193
870.84	5128
870.97	5018
871.1	4949
871.23	5189
871.36	5189
871.489	5052
871.619	5094
871.749	5140
871.879	5201
872.008	5212
872.138	5060
872.267	5060
872.397	4919
872.526	4831
872.656	4778
872.785	4896
872.915	5037
873.044	5067
873.173	4991
873.303	5048
873.432	5014
873.561	5075
873.69	4919
873.819	4927
873.948	4949
874.077	4889
874.206	4755
874.335	4816
874.464	4995
874.593	5086
874.722	5064
874.851	5124
874.979	5132
875.108	5060
875.237	4953
875.365	4949
875.494	4949
875.623	5014
875.751	4843
875.88	4904
876.008	5045
876.136	5128
876.265	5231
876.393	5322
876.521	5299
876.65	5280
876.778	5216
876.906	5109
877.034	5056
877.162	5132
877.29	5041
877.418	5132
877.546	5041
877.674	5102
877.802	5075
877.93	5086
878.058	4957
878.185	4911
878.313	4976
878.441	5018
878.568	4885
878.696	4961
878.824	5003
878.951	5025
879.079	5231
879.206	5288
879.333	5178
879.461	5037
879.588	5086
879.715	5170
879.842	5299
879.97	5041
880.097	4877
880.224	4778
880.351	4847
880.478	4877
880.605	4850
880.732	4797
880.859	5132
880.986	4980
881.112	4930
881.239	4824
881.366	4729
881.493	4656
881.619	4630
881.746	4668
881.872	4710
881.999	4672
882.125	4759
882.252	4847
882.378	4831
882.505	4999
882.631	4809
882.757	4702
882.883	4828
883.01	4774
883.136	4702
883.262	4573
883.388	4687
883.514	4877
883.64	4870
883.766	4839
883.892	4729
884.018	4736
884.143	5010
884.269	5067
884.395	4714
884.52	4645
884.646	4675
884.772	4588
884.897	4637
885.023	4733
885.148	4839
885.274	4923
885.399	4873
885.524	4748
885.65	4729
885.775	4759
885.9	4725
886.025	4911
886.15	4797
886.275	4771
886.4	4710
886.525	4752
886.65	4778
886.775	4706
886.9	4934
887.025	5056
887.149	4828
887.274	4694
887.399	4588
887.523	4615
887.648	4618
887.773	4618
887.897	4790
888.021	4831
888.146	4748
888.27	4843
888.395	4930
888.519	4828
888.643	4862
888.767	4858
888.891	4755
889.015	4599
889.139	4679
889.263	4694
889.387	4843
889.511	4889
889.635	4877
889.759	4672
889.883	4744
890.006	4812
890.13	4892
890.254	4672
890.377	4752
890.501	4588
890.624	4565
890.748	4725
890.871	4580
890.995	4504
891.118	4436
891.241	4558
891.364	4626
891.488	4634
891.611	4546
891.734	4569
891.857	4668
891.98	4603
892.103	4664
892.226	4622
892.349	4596
892.471	4466
892.594	4580
892.717	4653
892.839	4584
892.962	4641
893.085	4683
893.207	4618
893.33	4500
893.452	4542
893.575	4660
893.697	4588
893.819	4839
893.941	4870
894.064	4767
894.186	4618
894.308	4588
894.43	4793
894.552	4873
894.674	4778
894.796	4542
894.918	4645
895.04	4615
895.161	4736
895.283	4729
895.405	4630
895.526	4706
895.648	4706
895.769	4725
895.891	4763
896.012	4816
896.134	4828
896.255	4717
896.376	4622
896.498	4599
896.619	4725
896.74	4721
896.861	4660
896.982	4942
897.103	5147
897.224	4946
897.345	4793
897.466	4733
897.587	4759
897.708	4892
897.828	4843
897.949	4721
898.07	4626
898.19	4672
898.311	4870
898.431	4725
898.552	4824
898.672	4858
898.792	4847
898.913	4816
899.033	4679
899.153	4565
899.273	4459
899.393	4497
899.513	4584
899.633	4622
899.753	4558
899.873	4542
899.993	4607
900.113	4596
900.232	4637
900.352	4580
900.472	4500
900.591	4432
900.711	4550
900.83	4523
900.95	4630
901.069	4706
901.189	4573
901.308	4409
901.427	4375
901.546	4424
901.665	4531
901.784	4569
901.904	4386
902.023	4344
902.141	4257
902.26	4242
902.379	4344
902.498	4310
902.617	4246
902.735	4409
902.854	4356
902.973	4409
903.091	4238
903.21	4257
903.328	4352
903.446	4276
903.565	4268
903.683	4405
903.801	4325
903.919	4417
904.038	4512
904.156	4379
904.274	4451
904.392	4451
904.51	4474
904.627	4504
904.745	4641
904.863	4645
904.981	4481
905.098	4341
905.216	4394
905.334	4447
905.451	4504
905.569	4516
905.686	4558
905.803	4637
905.921	4440
906.038	4596
906.155	4538
906.272	4432
906.389	4474
906.506	4394
906.623	4424
906.74	4413
906.857	4375
906.974	4421
907.091	4603
907.208	4714
907.324	4615
907.441	4546
907.557	4360
907.674	4409
907.79	4383
907.907	4432
908.023	4504
908.139	4504
908.256	4459
908.372	4531
908.488	4519
908.604	4443
908.72	4344
908.836	4417
908.952	4363
909.068	4455
909.184	4672
909.3	4523
909.415	4588
909.531	4588
909.647	4356
909.762	4462
909.878	4409
909.993	4455
910.108	4481
910.224	4424
910.339	4550
910.454	4447
910.57	4436
910.685	4367
910.8	4729
910.915	4679
911.03	4531
911.145	4363
911.259	4375
911.374	4440
911.489	4333
911.604	4344
911.718	4192
911.833	4234
911.947	4128
912.062	4036
912.176	4246
912.291	4246
912.405	4341
912.519	4493
912.633	4561
912.748	4413
912.862	4303
912.976	4253
913.09	4158
913.204	4272
913.318	4306
913.431	4459
913.545	4363
913.659	4481
913.772	4386
913.886	4299
914	4265
914.113	4417
914.226	4500
914.34	4386
914.453	4272
914.566	4459
914.68	4383
914.793	4383
914.906	4185
915.019	4150
915.132	4112
915.245	4207
915.358	4272
915.47	4265
915.583	4310
915.696	4348
915.809	4508
915.921	4455
916.034	4318
916.146	4310
916.259	4246
916.371	4375
916.483	4398
916.595	4295
916.708	4417
916.82	4375
916.932	4325
917.044	4402
917.156	4379
917.268	4242
917.38	4333
917.491	4348
917.603	4417
917.715	4459
917.826	4478
917.938	4402
918.049	4268
918.161	4421
918.272	4603
918.384	4611
918.495	4497
918.606	4295
918.717	4261
918.828	4383
918.939	4402
919.05	4295
919.161	4371
919.272	4158
919.383	4287
919.494	4504
919.604	4687
919.715	4462
919.826	4375
919.936	4455
920.047	4546
920.157	4531
920.267	4714
920.378	4588
920.488	4546
920.598	4801
920.708	4984
920.818	4767
920.928	4774
921.038	4976
921.148	4965
921.258	4691
921.368	4626
921.477	4538
921.587	4478
921.697	4409
921.806	4577
921.916	4478
922.025	4276
922.134	4348
922.244	4299
922.353	4390
922.462	4207
922.571	4143
922.68	4055
922.789	4017
922.898	4074
923.007	4074
923.116	4162
923.224	4101
923.333	4105
923.442	4017
923.55	4017
923.659	4021
923.767	4131
923.876	4044
923.984	4173
924.092	4013
924.201	4128
924.309	4150
924.417	4196
924.525	4105
924.633	4158
924.741	5109
924.849	3956
924.956	4185
925.064	3968
925.172	3945
925.279	4040
925.387	4097
925.494	4109
925.602	4238
925.709	4227
925.816	4090
925.924	4192
926.031	4287
926.138	4162
926.245	4227
926.352	4120
926.459	4310
926.566	4367
926.673	4185
926.779	4135
926.886	4131
926.993	3968
927.099	3998
927.206	3953
927.312	3960
927.419	4162
927.525	4074
927.631	4093
927.737	3975
927.843	4021
927.95	3861
928.056	3991
928.162	4021
928.267	4109
928.373	4717
928.479	4154
928.585	3911
928.69	4063
928.796	4109
928.901	4002
929.007	3857
929.112	4029
929.218	3975
929.323	3953
929.428	3987
929.533	4124
929.638	3941
929.743	3930
929.848	4093
929.953	3991
930.058	3968
930.163	3850
930.267	3831
930.372	3979
930.477	3850
930.581	4128
930.685	3964
930.79	3880
930.894	3907
930.998	3903
931.103	4093
931.207	3781
931.311	3740
931.415	3679
931.519	3561
931.623	3591
