Data from test_V78500241_237.txt Node
Date: Fri Mar 25 16:50:39 CST 2022
User: usil
Spectrometer: V785-0024
Trigger mode: 0
Integration Time (sec): 4.000000E-1
Scans to average: 1
Nonlinearity correction enabled: false
Boxcar width: 0
Storing dark spectrum: false
XAxis mode: Wavelengths
Number of Pixels in Spectrum: 1024
>>>>>Begin Spectral Data<<<<<
801.071	8111
801.214	7978
801.356	7864
801.499	7822
801.641	7818
801.783	7864
801.926	7959
802.068	7955
802.211	8024
802.353	8005
802.496	7864
802.638	7822
802.78	7970
802.923	7963
803.065	7887
803.208	7826
803.35	7982
803.492	8024
803.635	8176
803.777	8016
803.919	8020
804.061	8438
804.204	8092
804.346	8092
804.488	8020
804.63	8123
804.773	7963
804.915	8058
805.057	8233
805.199	8199
805.341	8161
805.483	8275
805.626	8180
805.768	8084
805.91	8145
806.052	8164
806.194	8065
806.336	8309
806.478	8103
806.62	8035
806.762	8081
806.904	8210
807.046	8408
807.188	8324
807.33	8275
807.472	8248
807.614	8103
807.756	8149
807.898	7951
808.04	7902
808.182	7852
808.324	7932
808.465	7928
808.607	8058
808.749	8115
808.891	8259
809.033	8301
809.174	8111
809.316	7974
809.458	8058
809.6	7936
809.741	8008
809.883	8050
810.025	8142
810.166	8065
810.308	8008
810.45	8024
810.591	7868
810.733	7765
810.875	7594
811.016	7510
811.158	7506
811.299	7624
811.441	7727
811.582	7616
811.724	7525
811.865	7578
812.007	7575
812.148	7586
812.29	7586
812.431	7727
812.573	7894
812.714	8035
812.855	8206
812.997	8183
813.138	8404
813.279	8187
813.421	8126
813.562	7970
813.703	7887
813.845	7860
813.986	7411
814.127	7202
814.268	7209
814.41	7221
814.551	7160
814.692	7236
814.833	7015
814.974	7076
815.115	7095
815.256	6962
815.397	6905
815.539	6916
815.68	6848
815.821	6783
815.962	6776
816.103	6768
816.244	6741
816.385	6650
816.526	6673
816.666	6494
816.807	6346
816.948	6429
817.089	6448
817.23	6445
817.371	6433
817.512	6361
817.653	6433
817.793	6327
817.934	6395
818.075	6486
818.216	6426
818.356	6433
818.497	6220
818.638	6079
818.778	6136
818.919	6163
819.06	6148
819.2	6350
819.341	6304
819.481	6342
819.622	6490
819.762	6620
819.903	6741
820.043	6566
820.184	6525
820.324	6616
820.465	6631
820.605	6604
820.746	6616
820.886	6506
821.026	6593
821.167	6741
821.307	6787
821.447	6711
821.588	6635
821.728	6551
821.868	6475
822.008	6334
822.149	6376
822.289	6346
822.429	6144
822.569	6045
822.709	6068
822.849	5942
822.99	5965
823.13	5965
823.27	5889
823.41	5779
823.55	5790
823.69	5760
823.83	5805
823.97	5718
824.11	5516
824.25	5493
824.389	5532
824.529	5551
824.669	5512
824.809	5657
824.949	5653
825.089	5630
825.228	5581
825.368	5406
825.508	5353
825.648	5330
825.787	5402
825.927	5368
826.067	5280
826.206	5254
826.346	5376
826.485	5391
826.625	5421
826.765	5535
826.904	5490
827.044	5288
827.183	5216
827.323	5079
827.462	5189
827.601	5155
827.741	5208
827.88	5216
828.02	5075
828.159	5246
828.298	5311
828.437	5372
828.577	5303
828.716	5551
828.855	5288
828.994	5197
829.134	5109
829.273	5208
829.412	5140
829.551	5212
829.69	5197
829.829	5250
829.968	5433
830.107	5269
830.246	5349
830.385	5189
830.524	5083
830.663	5094
830.802	4946
830.941	4927
831.08	4938
831.219	4972
831.357	4995
831.496	5181
831.635	4930
831.774	4831
831.913	4843
832.051	4771
832.19	4782
832.329	4748
832.467	4668
832.606	4649
832.744	4721
832.883	4702
833.022	4683
833.16	4752
833.299	4771
833.437	4824
833.576	4820
833.714	4881
833.852	4816
833.991	4877
834.129	4987
834.267	4938
834.406	4927
834.544	4953
834.682	4965
834.821	5003
834.959	5136
835.097	4980
835.235	5166
835.373	5124
835.511	5079
835.65	5064
835.788	5018
835.926	4908
836.064	4854
836.202	4904
836.34	5201
836.478	5223
836.615	5121
836.753	5239
836.891	5280
837.029	5288
837.167	5212
837.305	5189
837.443	5170
837.58	5102
837.718	5273
837.856	5155
837.993	5136
838.131	5212
838.269	5280
838.406	5220
838.544	5227
838.681	5086
838.819	4987
838.956	4900
839.094	4953
839.231	5025
839.369	5037
839.506	5433
839.643	5277
839.781	5083
839.918	5071
840.055	5079
840.193	5033
840.33	5143
840.467	5071
840.604	5208
840.742	5482
840.879	5113
841.016	5098
841.153	5140
841.29	5330
841.427	5368
841.564	5318
841.701	5372
841.838	5204
841.975	5250
842.112	5269
842.249	5140
842.385	5155
842.522	5364
842.659	5094
842.796	5117
842.933	5212
843.069	5185
843.206	5159
843.343	5284
843.479	5250
843.616	5258
843.752	5041
843.889	5056
844.025	5212
844.162	5064
844.298	5250
844.435	5113
844.571	5086
844.708	5246
844.844	5273
844.98	5349
845.117	5307
845.253	5174
845.389	5117
845.525	5147
845.661	5201
845.798	5052
845.934	5086
846.07	5083
846.206	5143
846.342	5254
846.478	5162
846.614	5064
846.75	4961
846.886	4915
847.022	5147
847.158	5010
847.294	5109
847.429	5071
847.565	5037
847.701	5296
847.837	4858
847.972	4782
848.108	4961
848.244	4999
848.379	4782
848.515	4721
848.65	4710
848.786	4729
848.921	4801
849.057	4892
849.192	4908
849.328	4828
849.463	4816
849.598	4847
849.734	4778
849.869	4683
850.004	4641
850.14	4725
850.275	4592
850.41	4554
850.545	4603
850.68	4588
850.815	4641
850.95	4637
851.085	4820
851.22	4710
851.355	4672
851.49	4649
851.625	4641
851.76	4649
851.895	4588
852.03	4508
852.165	4634
852.299	4698
852.434	4748
852.569	4748
852.703	4748
852.838	4839
852.973	4919
853.107	4938
853.242	4767
853.376	4691
853.511	4493
853.645	4622
853.78	4809
853.914	4694
854.048	4668
854.183	4626
854.317	4721
854.451	4828
854.585	4687
854.72	4645
854.854	4710
854.988	4565
855.122	4668
855.256	4504
855.39	4706
855.524	4805
855.658	4725
855.792	4706
855.926	4698
856.06	4740
856.194	4820
856.327	4694
856.461	4561
856.595	4668
856.729	4653
856.862	4717
856.996	4710
857.13	4725
857.263	4748
857.397	4752
857.53	4622
857.664	4675
857.797	4774
857.931	4778
858.064	4691
858.197	4759
858.331	4672
858.464	4645
858.597	4527
858.731	4660
858.864	4618
858.997	4599
859.13	4660
859.263	4664
859.396	4672
859.529	4607
859.662	4618
859.795	4550
859.928	4626
860.061	4744
860.194	4752
860.327	4554
860.46	4580
860.592	4740
860.725	4706
860.858	4752
860.99	4538
861.123	4538
861.256	4542
861.388	4603
861.521	5429
861.653	4500
861.786	4451
861.918	4493
862.05	4478
862.183	4565
862.315	4626
862.447	4626
862.58	4542
862.712	4394
862.844	4390
862.976	4500
863.108	4466
863.24	4900
863.372	4348
863.504	4402
863.636	4398
863.768	4455
863.9	4447
864.032	4383
864.164	4443
864.296	4516
864.428	4573
864.559	4577
864.691	4569
864.823	4550
864.954	4500
865.086	4504
865.217	4462
865.349	4436
865.48	4443
865.612	4512
865.743	4683
865.875	4481
866.006	4440
866.137	4470
866.269	4451
866.4	4462
866.531	4459
866.662	4421
866.793	4383
866.924	4436
867.055	4478
867.186	4470
867.317	4413
867.448	4402
867.579	4379
867.71	4440
867.841	4394
867.972	4538
868.103	4474
868.233	4466
868.364	4489
868.495	4516
868.625	4653
868.756	4763
868.886	4596
869.017	4618
869.147	4797
869.278	4778
869.408	4687
869.539	4645
869.669	4725
869.799	4649
869.929	4733
870.06	4687
870.19	4984
870.32	4934
870.45	4938
870.58	5003
870.71	5052
870.84	5075
870.97	4934
871.1	4896
871.23	5121
871.36	5048
871.489	5048
871.619	5090
871.749	5140
871.879	5151
872.008	5166
872.138	5124
872.267	4995
872.397	4866
872.526	4805
872.656	4733
872.785	4816
872.915	5022
873.044	5041
873.173	4953
873.303	4972
873.432	4995
873.561	4938
873.69	4847
873.819	4881
873.948	4942
874.077	4889
874.206	4782
874.335	4816
874.464	4911
874.593	5041
874.722	4995
874.851	5136
874.979	5029
875.108	5037
875.237	4892
875.365	4873
875.494	4904
875.623	4980
875.751	4759
875.88	4835
876.008	5018
876.136	5003
876.265	5105
876.393	5341
876.521	5227
876.65	5178
876.778	5136
876.906	5075
877.034	5045
877.162	5052
877.29	4961
877.418	5098
877.546	5079
877.674	5010
877.802	5003
877.93	5029
878.058	4930
878.185	4877
878.313	4949
878.441	4949
878.568	4790
878.696	4812
878.824	4976
878.951	4987
879.079	5159
879.206	5288
879.333	5109
879.461	4987
879.588	4961
879.715	5113
879.842	5223
879.97	5048
880.097	4778
880.224	4755
880.351	4771
880.478	4847
880.605	4812
880.732	4839
880.859	5117
880.986	4915
881.112	4896
881.239	4748
881.366	4714
881.493	4603
881.619	4615
881.746	4622
881.872	4622
881.999	4694
882.125	4683
882.252	4733
882.378	4767
882.505	4980
882.631	4839
882.757	4702
882.883	4702
883.01	4778
883.136	4733
883.262	4577
883.388	4641
883.514	4831
883.64	4908
883.766	4793
883.892	4634
884.018	4717
884.143	4847
884.269	4961
884.395	4694
884.52	4630
884.646	4687
884.772	4577
884.897	4615
885.023	4675
885.148	4801
885.274	4896
885.399	4828
885.524	4778
885.65	4668
885.775	4717
885.9	4721
886.025	4873
886.15	4786
886.275	4683
886.4	4645
886.525	4729
886.65	4653
886.775	4706
886.9	4942
887.025	5033
887.149	4820
887.274	4630
887.399	4645
887.523	4577
887.648	4599
887.773	4592
887.897	4767
888.021	4790
888.146	4698
888.27	4767
888.395	4919
888.519	4809
888.643	4839
888.767	4831
888.891	4683
889.015	4618
889.139	4691
889.263	4615
889.387	4733
889.511	4870
889.635	4801
889.759	4664
889.883	4626
890.006	4717
890.13	4862
890.254	4611
890.377	4660
890.501	4516
890.624	4504
890.748	4611
890.871	4516
890.995	4436
891.118	4428
891.241	4504
891.364	4538
891.488	4660
891.611	4489
891.734	4550
891.857	4599
891.98	4531
892.103	4641
892.226	4596
892.349	4538
892.471	4443
892.594	4561
892.717	4611
892.839	4588
892.962	4611
893.085	4660
893.207	4599
893.33	4512
893.452	4462
893.575	4672
893.697	4630
893.819	4793
893.941	4850
894.064	4824
894.186	4596
894.308	4546
894.43	4733
894.552	4831
894.674	4725
894.796	4558
894.918	4599
895.04	4607
895.161	4714
895.283	4672
895.405	4603
895.526	4641
895.648	4755
895.769	4729
895.891	4733
896.012	4721
896.134	4782
896.255	4698
896.376	4656
896.498	4592
896.619	4702
896.74	4618
896.861	4672
896.982	4927
897.103	5090
897.224	4839
897.345	4790
897.466	4691
897.587	4729
897.708	4858
897.828	4786
897.949	4691
898.07	4580
898.19	4672
898.311	4824
898.431	4649
898.552	4721
898.672	4793
898.792	4797
898.913	4748
899.033	4622
899.153	4504
899.273	4481
899.393	4519
899.513	4527
899.633	4523
899.753	4580
899.873	4546
899.993	4546
900.113	4504
900.232	4599
900.352	4558
900.472	4504
900.591	4367
900.711	4500
900.83	4466
900.95	4599
901.069	4687
901.189	4485
901.308	4367
901.427	4341
901.546	4383
901.665	4493
901.784	4485
901.904	4390
902.023	4306
902.141	4223
902.26	4177
902.379	4329
902.498	4257
902.617	4227
902.735	4390
902.854	4409
902.973	4379
903.091	4204
903.21	4249
903.328	4299
903.446	4287
903.565	4299
903.683	4394
903.801	4265
903.919	4375
904.038	4417
904.156	4299
904.274	4459
904.392	4409
904.51	4405
904.627	4489
904.745	4546
904.863	4634
904.981	4409
905.098	4295
905.216	4379
905.334	4394
905.451	4428
905.569	4432
905.686	4573
905.803	4558
905.921	4398
906.038	4577
906.155	4455
906.272	4409
906.389	4508
906.506	4363
906.623	4344
906.74	4390
906.857	4314
906.974	4344
907.091	4573
907.208	4687
907.324	4634
907.441	4459
907.557	4333
907.674	4386
907.79	4325
907.907	4363
908.023	4485
908.139	4481
908.256	4470
908.372	4497
908.488	4497
908.604	4375
908.72	4333
908.836	4375
908.952	4398
909.068	4421
909.184	4546
909.3	4459
909.415	4584
909.531	4542
909.647	4356
909.762	4344
909.878	4318
909.993	4432
910.108	4405
910.224	4375
910.339	4421
910.454	4417
910.57	4375
910.685	4363
910.8	4668
910.915	4577
911.03	4481
911.145	4303
911.259	4329
911.374	4394
911.489	4310
911.604	4310
911.718	4192
911.833	4192
911.947	4109
912.062	4055
912.176	4242
912.291	4272
912.405	4230
912.519	4519
912.633	4497
912.748	4360
912.862	4363
912.976	4185
913.09	4158
913.204	4185
913.318	4249
913.431	4402
913.545	4383
913.659	4508
913.772	4390
913.886	4257
914	4234
914.113	4405
914.226	4409
914.34	4375
914.453	4246
914.566	4402
914.68	4299
914.793	4310
914.906	4200
915.019	4112
915.132	4090
915.245	4192
915.358	4215
915.47	4230
915.583	4230
915.696	4306
915.809	4421
915.921	4405
916.034	4284
916.146	4234
916.259	4272
916.371	4386
916.483	4344
916.595	4268
916.708	4363
916.82	4291
916.932	4337
917.044	4386
917.156	4344
917.268	4211
917.38	4287
917.491	4310
917.603	4348
917.715	4394
917.826	4485
917.938	4398
918.049	4268
918.161	4447
918.272	4577
918.384	4516
918.495	4455
918.606	4291
918.717	4268
918.828	4352
918.939	4375
919.05	4291
919.161	4325
919.272	4112
919.383	4230
919.494	4443
919.604	4637
919.715	4470
919.826	4398
919.936	4421
920.047	4523
920.157	4512
920.267	4687
920.378	4546
920.488	4478
920.598	4721
920.708	4877
920.818	4748
920.928	4748
921.038	4877
921.148	4930
921.258	4615
921.368	4645
921.477	4531
921.587	4451
921.697	4383
921.806	4554
921.916	4519
922.025	4314
922.134	4295
922.244	4257
922.353	4390
922.462	4173
922.571	4112
922.68	4059
922.789	3979
922.898	4055
923.007	3979
923.116	4116
923.224	4101
923.333	4082
923.442	3964
923.55	3983
923.659	3991
923.767	4109
923.876	3983
923.984	4109
924.092	3998
924.201	4105
924.309	4090
924.417	4105
924.525	4082
924.633	4093
924.741	5052
924.849	3911
924.956	4128
925.064	3930
925.172	3892
925.279	3937
925.387	4051
925.494	4067
925.602	4188
925.709	4204
925.816	4059
925.924	4128
926.031	4200
926.138	4162
926.245	4181
926.352	4112
926.459	4242
926.566	4287
926.673	4166
926.779	4074
926.886	4131
926.993	3960
927.099	3949
927.206	3960
927.312	3987
927.419	4097
927.525	4025
927.631	4063
927.737	3956
927.843	3964
927.95	3880
928.056	3964
928.162	3956
928.267	4082
928.373	4596
928.479	4090
928.585	3922
928.69	3994
928.796	4090
928.901	3945
929.007	3880
929.112	4040
929.218	3979
929.323	3968
929.428	3953
929.533	4120
929.638	3934
929.743	3975
929.848	4044
929.953	3975
930.058	3888
930.163	3762
930.267	3827
930.372	3972
930.477	3823
930.581	4116
930.685	3968
930.79	3774
930.894	3934
930.998	3903
931.103	4036
931.207	3736
931.311	3705
931.415	3663
931.519	3538
931.623	3530
