Data from test_V78500241_1184.txt Node
Date: Fri Mar 25 16:57:14 CST 2022
User: usil
Spectrometer: V785-0024
Trigger mode: 0
Integration Time (sec): 4.000000E-1
Scans to average: 1
Nonlinearity correction enabled: false
Boxcar width: 0
Storing dark spectrum: false
XAxis mode: Wavelengths
Number of Pixels in Spectrum: 1024
>>>>>Begin Spectral Data<<<<<
801.071	8084
801.214	7978
801.356	7864
801.499	7803
801.641	7772
801.783	7837
801.926	7944
802.068	7906
802.211	7959
802.353	7947
802.496	7814
802.638	7833
802.78	7883
802.923	7963
803.065	7913
803.208	7814
803.35	8016
803.492	8043
803.635	8221
803.777	8050
803.919	8138
804.061	8415
804.204	8191
804.346	8020
804.488	7963
804.63	8062
804.773	8012
804.915	8119
805.057	8385
805.199	8202
805.341	8202
805.483	8290
805.626	8214
805.768	8126
805.91	8229
806.052	8225
806.194	8020
806.336	8256
806.478	8149
806.62	8065
806.762	8107
806.904	8294
807.046	8499
807.188	8271
807.33	8191
807.472	8343
807.614	8157
807.756	8073
807.898	8001
808.04	7944
808.182	7909
808.324	7925
808.465	7887
808.607	8001
808.749	8035
808.891	8088
809.033	8271
809.174	8191
809.316	8077
809.458	8077
809.6	7967
809.741	8039
809.883	8046
810.025	8054
810.166	8050
810.308	8046
810.45	8024
810.591	7898
810.733	7765
810.875	7594
811.016	7453
811.158	7540
811.299	7559
811.441	7761
811.582	7674
811.724	7597
811.865	7590
812.007	7601
812.148	7613
812.29	7616
812.431	7734
812.573	7883
812.714	7967
812.855	8119
812.997	8157
813.138	8317
813.279	8187
813.421	8100
813.562	7997
813.703	7894
813.845	7780
813.986	7419
814.127	7285
814.268	7168
814.41	7175
814.551	7133
814.692	7175
814.833	7141
814.974	7008
815.115	7088
815.256	6966
815.397	6989
815.539	7012
815.68	6829
815.821	6783
815.962	6859
816.103	6856
816.244	6760
816.385	6646
816.526	6627
816.666	6506
816.807	6304
816.948	6372
817.089	6460
817.23	6403
817.371	6372
817.512	6426
817.653	6433
817.793	6376
817.934	6429
818.075	6388
818.216	6407
818.356	6429
818.497	6228
818.638	6171
818.778	6148
818.919	6049
819.06	6171
819.2	6239
819.341	6350
819.481	6289
819.622	6566
819.762	6719
819.903	6692
820.043	6528
820.184	6578
820.324	6589
820.465	6719
820.605	6681
820.746	6627
820.886	6513
821.026	6608
821.167	6734
821.307	6757
821.447	6795
821.588	6620
821.728	6593
821.868	6418
822.008	6399
822.149	6353
822.289	6350
822.429	6125
822.569	6117
822.709	6045
822.849	5874
822.99	5882
823.13	5866
823.27	5912
823.41	5786
823.55	5733
823.69	5748
823.83	5748
823.97	5653
824.11	5512
824.25	5467
824.389	5558
824.529	5611
824.669	5509
824.809	5627
824.949	5684
825.089	5596
825.228	5524
825.368	5387
825.508	5383
825.648	5318
825.787	5395
825.927	5349
826.067	5337
826.206	5246
826.346	5326
826.485	5372
826.625	5414
826.765	5547
826.904	5482
827.044	5277
827.183	5223
827.323	5128
827.462	5185
827.601	5128
827.741	5208
827.88	5170
828.02	5102
828.159	5208
828.298	5269
828.437	5303
828.577	5242
828.716	5520
828.855	5364
828.994	5166
829.134	5143
829.273	5223
829.412	5071
829.551	5109
829.69	5151
829.829	5220
829.968	5345
830.107	5159
830.246	5273
830.385	5174
830.524	5124
830.663	5060
830.802	4919
830.941	4927
831.08	4839
831.219	4961
831.357	4984
831.496	5132
831.635	4889
831.774	4847
831.913	4809
832.051	4729
832.19	4740
832.329	4809
832.467	4656
832.606	4596
832.744	4721
832.883	4733
833.022	4725
833.16	4748
833.299	4786
833.437	4831
833.576	4835
833.714	4862
833.852	4892
833.991	4831
834.129	4927
834.267	4949
834.406	4885
834.544	4908
834.682	4991
834.821	4980
834.959	5105
835.097	4980
835.235	5113
835.373	5102
835.511	5060
835.65	4987
835.788	5006
835.926	4873
836.064	4889
836.202	4870
836.34	5128
836.478	5204
836.615	5113
836.753	5204
836.891	5261
837.029	5265
837.167	5189
837.305	5109
837.443	5151
837.58	5041
837.718	5250
837.856	5174
837.993	5075
838.131	5216
838.269	5254
838.406	5159
838.544	5136
838.681	5018
838.819	4984
838.956	4900
839.094	4904
839.231	4957
839.369	5029
839.506	5383
839.643	5280
839.781	5086
839.918	5003
840.055	5056
840.193	5083
840.33	5147
840.467	5105
840.604	5151
840.742	5455
840.879	5064
841.016	5029
841.153	5102
841.29	5337
841.427	5322
841.564	5341
841.701	5353
841.838	5216
841.975	5250
842.112	5220
842.249	5136
842.385	5109
842.522	5299
842.659	5155
842.796	5166
842.933	5197
843.069	5098
843.206	5140
843.343	5280
843.479	5223
843.616	5254
843.752	5064
843.889	4972
844.025	5250
844.162	5025
844.298	5216
844.435	5105
844.571	5014
844.708	5174
844.844	5246
844.98	5280
845.117	5296
845.253	5098
845.389	5090
845.525	5121
845.661	5090
845.798	5025
845.934	5083
846.07	5010
846.206	5181
846.342	5261
846.478	5197
846.614	5006
846.75	4957
846.886	4900
847.022	5140
847.158	5010
847.294	5010
847.429	5048
847.565	5022
847.701	5307
847.837	4889
847.972	4736
848.108	4927
848.244	4927
848.379	4748
848.515	4694
848.65	4691
848.786	4759
848.921	4759
849.057	4889
849.192	4881
849.328	4797
849.463	4828
849.598	4778
849.734	4771
849.869	4740
850.004	4573
850.14	4622
850.275	4618
850.41	4497
850.545	4577
850.68	4626
850.815	4565
850.95	4618
851.085	4831
851.22	4725
851.355	4683
851.49	4558
851.625	4656
851.76	4611
851.895	4542
852.03	4523
852.165	4653
852.299	4672
852.434	4801
852.569	4714
852.703	4733
852.838	4835
852.973	4915
853.107	4923
853.242	4725
853.376	4679
853.511	4569
853.645	4622
853.78	4778
853.914	4694
854.048	4653
854.183	4641
854.317	4672
854.451	4847
854.585	4698
854.72	4618
854.854	4733
854.988	4569
855.122	4641
855.256	4535
855.39	4649
855.524	4755
855.658	4725
855.792	4698
855.926	4733
856.06	4714
856.194	4839
856.327	4687
856.461	4584
856.595	4611
856.729	4588
856.862	4706
856.996	4649
857.13	4694
857.263	4790
857.397	4816
857.53	4630
857.664	4706
857.797	4771
857.931	4778
858.064	4694
858.197	4694
858.331	4626
858.464	4649
858.597	4512
858.731	4599
858.864	4630
858.997	4618
859.13	4637
859.263	4634
859.396	4736
859.529	4592
859.662	4554
859.795	4493
859.928	4660
860.061	4801
860.194	4748
860.327	4592
860.46	4565
860.592	4706
860.725	4702
860.858	4706
860.99	4546
861.123	4508
861.256	4523
861.388	4615
861.521	5178
861.653	4451
861.786	4440
861.918	4432
862.05	4459
862.183	4538
862.315	4569
862.447	4615
862.58	4493
862.712	4405
862.844	4314
862.976	4402
863.108	4474
863.24	4854
863.372	4299
863.504	4402
863.636	4409
863.768	4451
863.9	4421
864.032	4341
864.164	4390
864.296	4516
864.428	4538
864.559	4546
864.691	4497
864.823	4531
864.954	4466
865.086	4542
865.217	4466
865.349	4402
865.48	4417
865.612	4485
865.743	4630
865.875	4455
866.006	4421
866.137	4451
866.269	4443
866.4	4443
866.531	4417
866.662	4375
866.793	4356
866.924	4428
867.055	4421
867.186	4455
867.317	4394
867.448	4344
867.579	4356
867.71	4352
867.841	4337
867.972	4443
868.103	4451
868.233	4436
868.364	4409
868.495	4478
868.625	4649
868.756	4740
868.886	4550
869.017	4607
869.147	4736
869.278	4733
869.408	4656
869.539	4603
869.669	4641
869.799	4656
869.929	4733
870.06	4660
870.19	4949
870.32	4923
870.45	4885
870.58	5003
870.71	5056
870.84	5064
870.97	4915
871.1	4866
871.23	5075
871.36	5102
871.489	5003
871.619	5060
871.749	5090
871.879	5083
872.008	5143
872.138	5098
872.267	5014
872.397	4850
872.526	4801
872.656	4706
872.785	4767
872.915	4911
873.044	5025
873.173	4961
873.303	4953
873.432	4965
873.561	4915
873.69	4904
873.819	4862
873.948	4866
874.077	4812
874.206	4755
874.335	4828
874.464	4896
874.593	5052
874.722	4946
874.851	5109
874.979	5067
875.108	5037
875.237	4923
875.365	4828
875.494	4885
875.623	4919
875.751	4828
875.88	4889
876.008	4946
876.136	5010
876.265	5201
876.393	5296
876.521	5204
876.65	5242
876.778	5193
876.906	5067
877.034	5037
877.162	4991
877.29	4995
877.418	5018
877.546	5018
877.674	4991
877.802	5052
877.93	4980
878.058	4904
878.185	4835
878.313	4980
878.441	4965
878.568	4824
878.696	4877
878.824	4957
878.951	4965
879.079	5143
879.206	5242
879.333	5048
879.461	4987
879.588	4976
879.715	5140
879.842	5250
879.97	4976
880.097	4786
880.224	4744
880.351	4793
880.478	4782
880.605	4828
880.732	4782
880.859	5105
880.986	4908
881.112	4896
881.239	4736
881.366	4694
881.493	4607
881.619	4558
881.746	4599
881.872	4618
881.999	4603
882.125	4660
882.252	4809
882.378	4831
882.505	4927
882.631	4782
882.757	4645
882.883	4740
883.01	4714
883.136	4717
883.262	4580
883.388	4607
883.514	4748
883.64	4915
883.766	4759
883.892	4675
884.018	4675
884.143	4847
884.269	4946
884.395	4698
884.52	4618
884.646	4656
884.772	4588
884.897	4565
885.023	4645
885.148	4752
885.274	4866
885.399	4786
885.524	4717
885.65	4630
885.775	4759
885.9	4694
886.025	4896
886.15	4763
886.275	4698
886.4	4664
886.525	4740
886.65	4683
886.775	4668
886.9	4908
887.025	5045
887.149	4793
887.274	4596
887.399	4580
887.523	4554
887.648	4546
887.773	4569
887.897	4759
888.021	4786
888.146	4653
888.27	4816
888.395	4877
888.519	4786
888.643	4774
888.767	4881
888.891	4668
889.015	4546
889.139	4637
889.263	4592
889.387	4763
889.511	4847
889.635	4782
889.759	4622
889.883	4611
890.006	4717
890.13	4809
890.254	4615
890.377	4702
890.501	4573
890.624	4489
890.748	4615
890.871	4489
890.995	4432
891.118	4394
891.241	4512
891.364	4512
891.488	4626
891.611	4493
891.734	4535
891.857	4603
891.98	4573
892.103	4653
892.226	4634
892.349	4516
892.471	4405
892.594	4569
892.717	4561
892.839	4588
892.962	4561
893.085	4603
893.207	4596
893.33	4436
893.452	4550
893.575	4641
893.697	4592
893.819	4763
893.941	4820
894.064	4744
894.186	4542
894.308	4573
894.43	4797
894.552	4778
894.674	4721
894.796	4580
894.918	4561
895.04	4558
895.161	4694
895.283	4668
895.405	4531
895.526	4634
895.648	4645
895.769	4668
895.891	4717
896.012	4706
896.134	4691
896.255	4653
896.376	4622
896.498	4577
896.619	4679
896.74	4599
896.861	4641
896.982	4938
897.103	5056
897.224	4820
897.345	4725
897.466	4588
897.587	4752
897.708	4828
897.828	4763
897.949	4626
898.07	4592
898.19	4596
898.311	4850
898.431	4618
898.552	4714
898.672	4786
898.792	4774
898.913	4691
899.033	4584
899.153	4485
899.273	4417
899.393	4523
899.513	4516
899.633	4466
899.753	4531
899.873	4512
899.993	4565
900.113	4531
900.232	4573
900.352	4519
900.472	4519
900.591	4394
900.711	4451
900.83	4405
900.95	4607
901.069	4634
901.189	4523
901.308	4356
901.427	4318
901.546	4409
901.665	4462
901.784	4500
901.904	4402
902.023	4352
902.141	4150
902.26	4188
902.379	4272
902.498	4253
902.617	4276
902.735	4375
902.854	4375
902.973	4329
903.091	4196
903.21	4181
903.328	4310
903.446	4249
903.565	4242
903.683	4344
903.801	4314
903.919	4451
904.038	4424
904.156	4337
904.274	4451
904.392	4383
904.51	4451
904.627	4481
904.745	4538
904.863	4660
904.981	4413
905.098	4287
905.216	4329
905.334	4367
905.451	4405
905.569	4432
905.686	4588
905.803	4573
905.921	4413
906.038	4550
906.155	4462
906.272	4383
906.389	4417
906.506	4352
906.623	4344
906.74	4375
906.857	4306
906.974	4379
907.091	4542
907.208	4634
907.324	4577
907.441	4489
907.557	4341
907.674	4314
907.79	4257
907.907	4386
908.023	4504
908.139	4478
908.256	4436
908.372	4455
908.488	4443
908.604	4337
908.72	4318
908.836	4367
908.952	4409
909.068	4443
909.184	4565
909.3	4451
909.415	4607
909.531	4542
909.647	4371
909.762	4379
909.878	4333
909.993	4440
910.108	4405
910.224	4405
910.339	4421
910.454	4379
910.57	4341
910.685	4291
910.8	4618
910.915	4580
911.03	4538
911.145	4333
911.259	4329
911.374	4325
911.489	4306
911.604	4261
911.718	4173
911.833	4158
911.947	4059
912.062	4029
912.176	4211
912.291	4257
912.405	4249
912.519	4493
912.633	4516
912.748	4333
912.862	4299
912.976	4173
913.09	4032
913.204	4154
913.318	4204
913.431	4371
913.545	4386
913.659	4371
913.772	4318
913.886	4249
914	4192
914.113	4367
914.226	4417
914.34	4383
914.453	4185
914.566	4421
914.68	4310
914.793	4295
914.906	4177
915.019	4082
915.132	4097
915.245	4173
915.358	4230
915.47	4238
915.583	4227
915.696	4299
915.809	4363
915.921	4405
916.034	4230
916.146	4280
916.259	4223
916.371	4394
916.483	4356
916.595	4246
916.708	4268
916.82	4337
916.932	4295
917.044	4325
917.156	4329
917.268	4204
917.38	4268
917.491	4280
917.603	4318
917.715	4386
917.826	4409
917.938	4344
918.049	4261
918.161	4390
918.272	4538
918.384	4523
918.495	4474
918.606	4276
918.717	4223
918.828	4291
918.939	4375
919.05	4223
919.161	4314
919.272	4120
919.383	4207
919.494	4405
919.604	4618
919.715	4451
919.826	4337
919.936	4383
920.047	4523
920.157	4474
920.267	4668
920.378	4531
920.488	4527
920.598	4683
920.708	4847
920.818	4729
920.928	4717
921.038	4900
921.148	4942
921.258	4634
921.368	4615
921.477	4478
921.587	4424
921.697	4409
921.806	4542
921.916	4402
922.025	4284
922.134	4249
922.244	4223
922.353	4314
922.462	4158
922.571	4082
922.68	4002
922.789	3998
922.898	4013
923.007	3953
923.116	4055
923.224	4055
923.333	4067
923.442	3956
923.55	3979
923.659	4006
923.767	4097
923.876	3994
923.984	4086
924.092	3972
924.201	4078
924.309	4101
924.417	4135
924.525	4082
924.633	4044
924.741	5060
924.849	3888
924.956	4131
925.064	3953
925.172	3873
925.279	3956
925.387	4071
925.494	4051
925.602	4253
925.709	4150
925.816	3998
925.924	4135
926.031	4177
926.138	4109
926.245	4223
926.352	4071
926.459	4227
926.566	4234
926.673	4131
926.779	4032
926.886	4071
926.993	3968
927.099	3930
927.206	3960
927.312	3945
927.419	4032
927.525	4029
927.631	4124
927.737	3991
927.843	3892
927.95	3819
928.056	3880
928.162	3991
928.267	4032
928.373	4615
928.479	4059
928.585	3873
928.69	3987
928.796	4055
928.901	3975
929.007	3842
929.112	4021
929.218	3983
929.323	3983
929.428	3907
929.533	4109
929.638	3884
929.743	3953
929.848	4013
929.953	3941
930.058	3903
930.163	3740
930.267	3823
930.372	3918
930.477	3766
930.581	4048
930.685	3918
930.79	3819
930.894	3854
930.998	3846
931.103	4017
931.207	3743
931.311	3656
931.415	3648
931.519	3492
931.623	3557
