Data from test_V78500241_1157.txt Node
Date: Fri Mar 25 16:57:02 CST 2022
User: usil
Spectrometer: V785-0024
Trigger mode: 0
Integration Time (sec): 4.000000E-1
Scans to average: 1
Nonlinearity correction enabled: false
Boxcar width: 0
Storing dark spectrum: false
XAxis mode: Wavelengths
Number of Pixels in Spectrum: 1024
>>>>>Begin Spectral Data<<<<<
801.071	8016
801.214	7978
801.356	7902
801.499	7841
801.641	7757
801.783	7765
801.926	7970
802.068	7860
802.211	7951
802.353	7944
802.496	7830
802.638	7830
802.78	7944
802.923	7830
803.065	7970
803.208	7879
803.35	7955
803.492	8115
803.635	8233
803.777	8043
803.919	8157
804.061	8419
804.204	8172
804.346	8050
804.488	8001
804.63	8138
804.773	8043
804.915	8107
805.057	8191
805.199	8161
805.341	8244
805.483	8275
805.626	8153
805.768	8145
805.91	8210
806.052	8218
806.194	8096
806.336	8313
806.478	8103
806.62	8058
806.762	8123
806.904	8290
807.046	8492
807.188	8336
807.33	8290
807.472	8332
807.614	8092
807.756	8092
807.898	8088
808.04	7868
808.182	7925
808.324	7890
808.465	7997
808.607	8100
808.749	8161
808.891	8202
809.033	8267
809.174	8244
809.316	8020
809.458	8054
809.6	7982
809.741	8043
809.883	8027
810.025	8069
810.166	8005
810.308	8024
810.45	7982
810.591	7906
810.733	7681
810.875	7662
811.016	7544
811.158	7476
811.299	7597
811.441	7750
811.582	7677
811.724	7620
811.865	7506
812.007	7613
812.148	7590
812.29	7613
812.431	7784
812.573	7864
812.714	8008
812.855	8081
812.997	8248
813.138	8256
813.279	8172
813.421	8111
813.562	8001
813.703	7902
813.845	7772
813.986	7476
814.127	7278
814.268	7202
814.41	7225
814.551	7118
814.692	7179
814.833	7099
814.974	7084
815.115	7103
815.256	6947
815.397	6913
815.539	6939
815.68	6825
815.821	6791
815.962	6890
816.103	6802
816.244	6722
816.385	6654
816.526	6608
816.666	6486
816.807	6327
816.948	6433
817.089	6521
817.23	6456
817.371	6323
817.512	6422
817.653	6384
817.793	6372
817.934	6448
818.075	6456
818.216	6456
818.356	6452
818.497	6292
818.638	6064
818.778	6190
818.919	6175
819.06	6163
819.2	6273
819.341	6319
819.481	6334
819.622	6506
819.762	6787
819.903	6738
820.043	6612
820.184	6593
820.324	6532
820.465	6703
820.605	6635
820.746	6700
820.886	6513
821.026	6612
821.167	6776
821.307	6795
821.447	6753
821.588	6612
821.728	6582
821.868	6517
822.008	6338
822.149	6353
822.289	6331
822.429	6144
822.569	6064
822.709	6136
822.849	5882
822.99	5908
823.13	5885
823.27	5870
823.41	5783
823.55	5775
823.69	5748
823.83	5813
823.97	5672
824.11	5551
824.25	5505
824.389	5577
824.529	5570
824.669	5558
824.809	5608
824.949	5604
825.089	5596
825.228	5589
825.368	5379
825.508	5391
825.648	5341
825.787	5318
825.927	5387
826.067	5299
826.206	5326
826.346	5383
826.485	5376
826.625	5379
826.765	5532
826.904	5478
827.044	5216
827.183	5235
827.323	5121
827.462	5277
827.601	5204
827.741	5193
827.88	5193
828.02	5132
828.159	5246
828.298	5280
828.437	5372
828.577	5273
828.716	5459
828.855	5254
828.994	5178
829.134	5208
829.273	5181
829.412	5136
829.551	5128
829.69	5174
829.829	5216
829.968	5398
830.107	5284
830.246	5231
830.385	5197
830.524	5124
830.663	5033
830.802	4942
830.941	4854
831.08	4854
831.219	4938
831.357	4976
831.496	5178
831.635	4915
831.774	4850
831.913	4862
832.051	4683
832.19	4744
832.329	4839
832.467	4683
832.606	4615
832.744	4691
832.883	4748
833.022	4710
833.16	4790
833.299	4778
833.437	4793
833.576	4854
833.714	4862
833.852	4896
833.991	4904
834.129	4965
834.267	4934
834.406	4934
834.544	4972
834.682	5003
834.821	4972
834.959	5147
835.097	5003
835.235	5170
835.373	5014
835.511	5048
835.65	4984
835.788	5006
835.926	4896
836.064	4881
836.202	4923
836.34	5174
836.478	5189
836.615	5136
836.753	5204
836.891	5284
837.029	5227
837.167	5151
837.305	5181
837.443	5170
837.58	5109
837.718	5204
837.856	5208
837.993	5170
838.131	5235
838.269	5212
838.406	5132
838.544	5181
838.681	5041
838.819	5025
838.956	4866
839.094	4877
839.231	4934
839.369	5052
839.506	5429
839.643	5296
839.781	5010
839.918	4984
840.055	5128
840.193	5083
840.33	5086
840.467	5155
840.604	5181
840.742	5448
840.879	5064
841.016	5041
841.153	5151
841.29	5383
841.427	5368
841.564	5296
841.701	5353
841.838	5292
841.975	5231
842.112	5254
842.249	5155
842.385	5109
842.522	5299
842.659	5155
842.796	5136
842.933	5185
843.069	5117
843.206	5113
843.343	5292
843.479	5265
843.616	5193
843.752	5006
843.889	4953
844.025	5197
844.162	5037
844.298	5235
844.435	5128
844.571	5025
844.708	5166
844.844	5292
844.98	5315
845.117	5284
845.253	5140
845.389	5052
845.525	5181
845.661	5113
845.798	5071
845.934	5121
846.07	4999
846.206	5166
846.342	5307
846.478	5098
846.614	5029
846.75	4942
846.886	4919
847.022	5155
847.158	4991
847.294	5056
847.429	5071
847.565	5041
847.701	5318
847.837	4816
847.972	4812
848.108	5018
848.244	4904
848.379	4763
848.515	4706
848.65	4649
848.786	4744
848.921	4774
849.057	4835
849.192	4873
849.328	4786
849.463	4873
849.598	4797
849.734	4717
849.869	4687
850.004	4630
850.14	4618
850.275	4584
850.41	4535
850.545	4554
850.68	4622
850.815	4580
850.95	4645
851.085	4850
851.22	4744
851.355	4687
851.49	4580
851.625	4622
851.76	4592
851.895	4565
852.03	4561
852.165	4683
852.299	4733
852.434	4721
852.569	4729
852.703	4797
852.838	4828
852.973	4885
853.107	4957
853.242	4759
853.376	4702
853.511	4531
853.645	4622
853.78	4839
853.914	4679
854.048	4618
854.183	4687
854.317	4706
854.451	4801
854.585	4691
854.72	4596
854.854	4717
854.988	4607
855.122	4656
855.256	4531
855.39	4634
855.524	4763
855.658	4752
855.792	4664
855.926	4729
856.06	4763
856.194	4771
856.327	4729
856.461	4626
856.595	4550
856.729	4588
856.862	4714
856.996	4660
857.13	4725
857.263	4725
857.397	4778
857.53	4637
857.664	4706
857.797	4790
857.931	4782
858.064	4645
858.197	4694
858.331	4653
858.464	4569
858.597	4504
858.731	4599
858.864	4660
858.997	4611
859.13	4637
859.263	4634
859.396	4755
859.529	4580
859.662	4554
859.795	4542
859.928	4618
860.061	4774
860.194	4725
860.327	4558
860.46	4596
860.592	4721
860.725	4691
860.858	4710
860.99	4546
861.123	4538
861.256	4531
861.388	4592
861.521	5193
861.653	4504
861.786	4436
861.918	4394
862.05	4550
862.183	4519
862.315	4660
862.447	4702
862.58	4527
862.712	4360
862.844	4291
862.976	4428
863.108	4485
863.24	4866
863.372	4314
863.504	4386
863.636	4390
863.768	4481
863.9	4421
864.032	4386
864.164	4398
864.296	4451
864.428	4497
864.559	4599
864.691	4558
864.823	4451
864.954	4504
865.086	4466
865.217	4466
865.349	4428
865.48	4474
865.612	4519
865.743	4607
865.875	4436
866.006	4413
866.137	4424
866.269	4436
866.4	4447
866.531	4413
866.662	4363
866.793	4379
866.924	4363
867.055	4493
867.186	4447
867.317	4371
867.448	4360
867.579	4379
867.71	4417
867.841	4341
867.972	4459
868.103	4424
868.233	4451
868.364	4459
868.495	4428
868.625	4641
868.756	4744
868.886	4550
869.017	4630
869.147	4733
869.278	4736
869.408	4649
869.539	4611
869.669	4698
869.799	4668
869.929	4797
870.06	4752
870.19	4930
870.32	4892
870.45	4965
870.58	4987
870.71	5121
870.84	5067
870.97	4900
871.1	4934
871.23	5128
871.36	5075
871.489	5025
871.619	5075
871.749	5113
871.879	5067
872.008	5136
872.138	5048
872.267	4942
872.397	4843
872.526	4744
872.656	4755
872.785	4801
872.915	4972
873.044	5018
873.173	4904
873.303	4972
873.432	4965
873.561	4938
873.69	4820
873.819	4854
873.948	4904
874.077	4790
874.206	4736
874.335	4744
874.464	4934
874.593	5071
874.722	4976
874.851	5041
874.979	5029
875.108	5037
875.237	4900
875.365	4885
875.494	4896
875.623	4946
875.751	4809
875.88	4877
876.008	4984
876.136	4972
876.265	5147
876.393	5311
876.521	5216
876.65	5201
876.778	5159
876.906	5090
877.034	4987
877.162	4987
877.29	4946
877.418	5022
877.546	4995
877.674	5003
877.802	5025
877.93	4984
878.058	4930
878.185	4896
878.313	4908
878.441	4942
878.568	4831
878.696	4854
878.824	4908
878.951	5022
879.079	5128
879.206	5265
879.333	5086
879.461	4938
879.588	4984
879.715	5162
879.842	5159
879.97	4999
880.097	4740
880.224	4740
880.351	4809
880.478	4828
880.605	4847
880.732	4763
880.859	5094
880.986	4847
881.112	4915
881.239	4767
881.366	4660
881.493	4580
881.619	4592
881.746	4645
881.872	4626
881.999	4656
882.125	4725
882.252	4797
882.378	4828
882.505	4927
882.631	4812
882.757	4702
882.883	4714
883.01	4767
883.136	4675
883.262	4596
883.388	4618
883.514	4828
883.64	4824
883.766	4850
883.892	4653
884.018	4672
884.143	4885
884.269	5025
884.395	4675
884.52	4653
884.646	4645
884.772	4596
884.897	4535
885.023	4649
885.148	4797
885.274	4839
885.399	4729
885.524	4759
885.65	4679
885.775	4744
885.9	4744
886.025	4793
886.15	4748
886.275	4740
886.4	4733
886.525	4679
886.65	4656
886.775	4687
886.9	4904
887.025	5003
887.149	4771
887.274	4660
887.399	4580
887.523	4577
887.648	4577
887.773	4558
887.897	4725
888.021	4797
888.146	4649
888.27	4790
888.395	4900
888.519	4816
888.643	4752
888.767	4812
888.891	4759
889.015	4653
889.139	4622
889.263	4634
889.387	4691
889.511	4900
889.635	4759
889.759	4634
889.883	4615
890.006	4733
890.13	4809
890.254	4622
890.377	4656
890.501	4580
890.624	4481
890.748	4626
890.871	4531
890.995	4432
891.118	4386
891.241	4554
891.364	4512
891.488	4653
891.611	4508
891.734	4489
891.857	4580
891.98	4485
892.103	4637
892.226	4565
892.349	4500
892.471	4447
892.594	4596
892.717	4584
892.839	4550
892.962	4622
893.085	4626
893.207	4573
893.33	4455
893.452	4546
893.575	4656
893.697	4584
893.819	4778
893.941	4820
894.064	4771
894.186	4554
894.308	4596
894.43	4702
894.552	4748
894.674	4755
894.796	4531
894.918	4622
895.04	4516
895.161	4698
895.283	4694
895.405	4603
895.526	4615
895.648	4634
895.769	4668
895.891	4679
896.012	4729
896.134	4755
896.255	4630
896.376	4668
896.498	4573
896.619	4649
896.74	4622
896.861	4634
896.982	4908
897.103	5018
897.224	4835
897.345	4778
897.466	4645
897.587	4736
897.708	4790
897.828	4748
897.949	4672
898.07	4565
898.19	4637
898.311	4801
898.431	4645
898.552	4740
898.672	4843
898.792	4797
898.913	4767
899.033	4592
899.153	4516
899.273	4432
899.393	4493
899.513	4455
899.633	4550
899.753	4558
899.873	4519
899.993	4565
900.113	4561
900.232	4554
900.352	4538
900.472	4466
900.591	4367
900.711	4443
900.83	4424
900.95	4565
901.069	4706
901.189	4493
901.308	4390
901.427	4341
901.546	4379
901.665	4436
901.784	4500
901.904	4375
902.023	4299
902.141	4162
902.26	4192
902.379	4322
902.498	4234
902.617	4207
902.735	4379
902.854	4421
902.973	4386
903.091	4192
903.21	4223
903.328	4310
903.446	4272
903.565	4207
903.683	4341
903.801	4284
903.919	4379
904.038	4409
904.156	4333
904.274	4440
904.392	4451
904.51	4386
904.627	4462
904.745	4611
904.863	4603
904.981	4409
905.098	4318
905.216	4344
905.334	4371
905.451	4390
905.569	4436
905.686	4535
905.803	4535
905.921	4413
906.038	4493
906.155	4432
906.272	4375
906.389	4447
906.506	4390
906.623	4356
906.74	4394
906.857	4314
906.974	4383
907.091	4573
907.208	4687
907.324	4599
907.441	4478
907.557	4383
907.674	4348
907.79	4322
907.907	4379
908.023	4493
908.139	4462
908.256	4436
908.372	4504
908.488	4470
908.604	4344
908.72	4314
908.836	4341
908.952	4386
909.068	4436
909.184	4592
909.3	4428
909.415	4607
909.531	4580
909.647	4394
909.762	4303
909.878	4322
909.993	4424
910.108	4379
910.224	4371
910.339	4455
910.454	4394
910.57	4348
910.685	4322
910.8	4710
910.915	4535
911.03	4512
911.145	4318
911.259	4325
911.374	4367
911.489	4310
911.604	4261
911.718	4185
911.833	4177
911.947	4067
912.062	4048
912.176	4211
912.291	4253
912.405	4238
912.519	4447
912.633	4485
912.748	4436
912.862	4284
912.976	4204
913.09	4093
913.204	4169
913.318	4249
913.431	4363
913.545	4360
913.659	4443
913.772	4314
913.886	4257
914	4234
914.113	4383
914.226	4440
914.34	4394
914.453	4219
914.566	4402
914.68	4310
914.793	4341
914.906	4143
915.019	4128
915.132	4082
915.245	4238
915.358	4158
915.47	4223
915.583	4291
915.696	4284
915.809	4432
915.921	4443
916.034	4257
916.146	4230
916.259	4200
916.371	4371
916.483	4341
916.595	4276
916.708	4306
916.82	4325
916.932	4371
917.044	4375
917.156	4287
917.268	4238
917.38	4227
917.491	4257
917.603	4314
917.715	4417
917.826	4383
917.938	4341
918.049	4238
918.161	4417
918.272	4519
918.384	4554
918.495	4413
918.606	4272
918.717	4246
918.828	4295
918.939	4352
919.05	4200
919.161	4322
919.272	4154
919.383	4219
919.494	4474
919.604	4580
919.715	4462
919.826	4272
919.936	4405
920.047	4531
920.157	4459
920.267	4683
920.378	4538
920.488	4535
920.598	4748
920.708	4892
920.818	4771
920.928	4801
921.038	4946
921.148	4892
921.258	4611
921.368	4542
921.477	4466
921.587	4481
921.697	4367
921.806	4516
921.916	4455
922.025	4257
922.134	4314
922.244	4261
922.353	4333
922.462	4169
922.571	4101
922.68	3998
922.789	3994
922.898	4029
923.007	3964
923.116	4116
923.224	4051
923.333	4078
923.442	4029
923.55	3983
923.659	4017
923.767	4105
923.876	3956
923.984	4097
924.092	3979
924.201	4044
924.309	4082
924.417	4181
924.525	4063
924.633	4059
924.741	5052
924.849	3941
924.956	4109
925.064	3949
925.172	3930
925.279	3975
925.387	4021
925.494	4017
925.602	4310
925.709	4162
925.816	4044
925.924	4120
926.031	4238
926.138	4135
926.245	4196
926.352	4112
926.459	4257
926.566	4310
926.673	4147
926.779	4078
926.886	4051
926.993	3949
927.099	3994
927.206	3915
927.312	3907
927.419	4055
927.525	4067
927.631	4093
927.737	3964
927.843	3979
927.95	3857
928.056	3911
928.162	4013
928.267	4063
928.373	4721
928.479	4120
928.585	3846
928.69	4006
928.796	4032
928.901	3960
929.007	3896
929.112	4006
929.218	3994
929.323	3937
929.428	3926
929.533	4120
929.638	3899
929.743	3975
929.848	4021
929.953	4013
930.058	3949
930.163	3797
930.267	3835
930.372	3972
930.477	3835
930.581	4067
930.685	3922
930.79	3816
930.894	3922
930.998	3827
931.103	4010
931.207	3679
931.311	3720
931.415	3679
931.519	3488
931.623	3587
