Data from test_V78500241_2065.txt Node
Date: Fri Mar 25 17:03:21 CST 2022
User: usil
Spectrometer: V785-0024
Trigger mode: 0
Integration Time (sec): 4.000000E-1
Scans to average: 1
Nonlinearity correction enabled: false
Boxcar width: 0
Storing dark spectrum: false
XAxis mode: Wavelengths
Number of Pixels in Spectrum: 1024
>>>>>Begin Spectral Data<<<<<
801.071	8103
801.214	8035
801.356	7871
801.499	7879
801.641	7822
801.783	7906
801.926	8027
802.068	7951
802.211	7974
802.353	8027
802.496	7871
802.638	7928
802.78	7887
802.923	7890
803.065	7902
803.208	7913
803.35	8005
803.492	8130
803.635	8126
803.777	8027
803.919	8130
804.061	8511
804.204	8176
804.346	8046
804.488	8020
804.63	8096
804.773	8088
804.915	8153
805.057	8351
805.199	8107
805.341	8229
805.483	8271
805.626	8199
805.768	8126
805.91	8237
806.052	8294
806.194	8183
806.336	8343
806.478	8138
806.62	8142
806.762	8191
806.904	8275
807.046	8499
807.188	8396
807.33	8298
807.472	8358
807.614	8183
807.756	8138
807.898	8088
808.04	7921
808.182	7917
808.324	7871
808.465	7947
808.607	8062
808.749	8123
808.891	8229
809.033	8309
809.174	8199
809.316	8130
809.458	8115
809.6	7959
809.741	8050
809.883	8081
810.025	8138
810.166	8092
810.308	8043
810.45	7978
810.591	7902
810.733	7719
810.875	7738
811.016	7533
811.158	7502
811.299	7537
811.441	7685
811.582	7723
811.724	7578
811.865	7533
812.007	7575
812.148	7662
812.29	7643
812.431	7780
812.573	7932
812.714	8039
812.855	8161
812.997	8206
813.138	8347
813.279	8206
813.421	8084
813.562	8046
813.703	7860
813.845	7750
813.986	7384
814.127	7282
814.268	7209
814.41	7316
814.551	7236
814.692	7217
814.833	7076
814.974	7091
815.115	7149
815.256	6932
815.397	6970
815.539	6966
815.68	6802
815.821	6798
815.962	6951
816.103	6818
816.244	6753
816.385	6677
816.526	6631
816.666	6536
816.807	6254
816.948	6471
817.089	6502
817.23	6502
817.371	6380
817.512	6353
817.653	6395
817.793	6407
817.934	6467
818.075	6494
818.216	6471
818.356	6467
818.497	6311
818.638	6163
818.778	6155
818.919	6155
819.06	6232
819.2	6376
819.341	6311
819.481	6357
819.622	6547
819.762	6787
819.903	6696
820.043	6673
820.184	6513
820.324	6635
820.465	6715
820.605	6684
820.746	6669
820.886	6483
821.026	6745
821.167	6692
821.307	6795
821.447	6829
821.588	6696
821.728	6642
821.868	6551
822.008	6388
822.149	6391
822.289	6407
822.429	6148
822.569	6117
822.709	6155
822.849	5893
822.99	5950
823.13	5939
823.27	5935
823.41	5786
823.55	5809
823.69	5851
823.83	5847
823.97	5680
824.11	5551
824.25	5509
824.389	5596
824.529	5623
824.669	5562
824.809	5680
824.949	5661
825.089	5646
825.228	5528
825.368	5429
825.508	5364
825.648	5398
825.787	5417
825.927	5372
826.067	5322
826.206	5292
826.346	5379
826.485	5425
826.625	5421
826.765	5653
826.904	5497
827.044	5204
827.183	5204
827.323	5181
827.462	5288
827.601	5170
827.741	5151
827.88	5212
828.02	5136
828.159	5212
828.298	5299
828.437	5376
828.577	5337
828.716	5501
828.855	5360
828.994	5162
829.134	5178
829.273	5254
829.412	5105
829.551	5159
829.69	5201
829.829	5277
829.968	5406
830.107	5265
830.246	5284
830.385	5216
830.524	5159
830.663	5094
830.802	5025
830.941	4881
831.08	4900
831.219	5006
831.357	5003
831.496	5208
831.635	4934
831.774	4858
831.913	4889
832.051	4759
832.19	4748
832.329	4858
832.467	4729
832.606	4679
832.744	4767
832.883	4809
833.022	4744
833.16	4816
833.299	4793
833.437	4915
833.576	4866
833.714	4839
833.852	4881
833.991	4942
834.129	4976
834.267	4980
834.406	4965
834.544	5018
834.682	5025
834.821	4961
834.959	5208
835.097	5010
835.235	5223
835.373	5159
835.511	5105
835.65	5048
835.788	5079
835.926	4915
836.064	4896
836.202	4968
836.34	5136
836.478	5201
836.615	5147
836.753	5235
836.891	5307
837.029	5258
837.167	5231
837.305	5216
837.443	5185
837.58	5143
837.718	5227
837.856	5181
837.993	5204
838.131	5261
838.269	5212
838.406	5216
838.544	5220
838.681	5071
838.819	4991
838.956	4908
839.094	4927
839.231	5003
839.369	5094
839.506	5425
839.643	5292
839.781	5071
839.918	5029
840.055	5143
840.193	5102
840.33	5132
840.467	5140
840.604	5216
840.742	5482
840.879	5140
841.016	5105
841.153	5181
841.29	5391
841.427	5341
841.564	5353
841.701	5349
841.838	5318
841.975	5208
842.112	5311
842.249	5178
842.385	5155
842.522	5376
842.659	5166
842.796	5140
842.933	5250
843.069	5132
843.206	5189
843.343	5239
843.479	5277
843.616	5311
843.752	5079
843.889	5045
844.025	5296
844.162	5079
844.298	5265
844.435	5090
844.571	5083
844.708	5254
844.844	5292
844.98	5357
845.117	5277
845.253	5159
845.389	5060
845.525	5181
845.661	5132
845.798	5060
845.934	5086
846.07	5094
846.206	5258
846.342	5284
846.478	5155
846.614	5025
846.75	4961
846.886	5010
847.022	5193
847.158	5037
847.294	5071
847.429	5113
847.565	5048
847.701	5311
847.837	4881
847.972	4831
848.108	4965
848.244	4934
848.379	4782
848.515	4755
848.65	4740
848.786	4797
848.921	4828
849.057	4911
849.192	4843
849.328	4873
849.463	4904
849.598	4831
849.734	4816
849.869	4729
850.004	4622
850.14	4634
850.275	4596
850.41	4531
850.545	4622
850.68	4672
850.815	4588
850.95	4592
851.085	4881
851.22	4778
851.355	4717
851.49	4653
851.625	4664
851.76	4691
851.895	4550
852.03	4588
852.165	4660
852.299	4710
852.434	4816
852.569	4797
852.703	4782
852.838	4892
852.973	4934
853.107	4881
853.242	4771
853.376	4691
853.511	4580
853.645	4630
853.78	4809
853.914	4664
854.048	4675
854.183	4664
854.317	4721
854.451	4847
854.585	4637
854.72	4653
854.854	4767
854.988	4637
855.122	4675
855.256	4584
855.39	4675
855.524	4782
855.658	4755
855.792	4717
855.926	4793
856.06	4801
856.194	4847
856.327	4691
856.461	4615
856.595	4630
856.729	4687
856.862	4759
856.996	4691
857.13	4740
857.263	4767
857.397	4801
857.53	4645
857.664	4710
857.797	4752
857.931	4736
858.064	4725
858.197	4733
858.331	4641
858.464	4615
858.597	4546
858.731	4687
858.864	4622
858.997	4580
859.13	4683
859.263	4717
859.396	4710
859.529	4588
859.662	4611
859.795	4516
859.928	4599
860.061	4786
860.194	4782
860.327	4622
860.46	4588
860.592	4744
860.725	4752
860.858	4729
860.99	4565
861.123	4561
861.256	4527
861.388	4634
861.521	5254
861.653	4542
861.786	4459
861.918	4493
862.05	4531
862.183	4558
862.315	4634
862.447	4668
862.58	4577
862.712	4413
862.844	4341
862.976	4500
863.108	4455
863.24	4744
863.372	4348
863.504	4386
863.636	4440
863.768	4493
863.9	4447
864.032	4386
864.164	4421
864.296	4474
864.428	4580
864.559	4558
864.691	4561
864.823	4504
864.954	4531
865.086	4493
865.217	4462
865.349	4402
865.48	4398
865.612	4447
865.743	4626
865.875	4470
866.006	4470
866.137	4493
866.269	4402
866.4	4417
866.531	4443
866.662	4409
866.793	4455
866.924	4447
867.055	4451
867.186	4470
867.317	4402
867.448	4386
867.579	4424
867.71	4436
867.841	4367
867.972	4481
868.103	4447
868.233	4447
868.364	4447
868.495	4485
868.625	4660
868.756	4782
868.886	4603
869.017	4565
869.147	4759
869.278	4786
869.408	4668
869.539	4660
869.669	4759
869.799	4683
869.929	4755
870.06	4729
870.19	4934
870.32	4915
870.45	4972
870.58	5094
870.71	5098
870.84	5090
870.97	4968
871.1	4919
871.23	5136
871.36	5071
871.489	5067
871.619	5083
871.749	5098
871.879	5071
872.008	5159
872.138	5010
872.267	4961
872.397	4858
872.526	4820
872.656	4782
872.785	4820
872.915	4961
873.044	5109
873.173	4946
873.303	4995
873.432	4946
873.561	4972
873.69	4854
873.819	4885
873.948	4889
874.077	4809
874.206	4740
874.335	4820
874.464	4980
874.593	5121
874.722	4938
874.851	5128
874.979	5045
875.108	5033
875.237	4919
875.365	4877
875.494	4850
875.623	4987
875.751	4873
875.88	4843
876.008	4991
876.136	5010
876.265	5201
876.393	5360
876.521	5254
876.65	5235
876.778	5159
876.906	5109
877.034	4995
877.162	5064
877.29	5018
877.418	5029
877.546	5033
877.674	5071
877.802	5037
877.93	5018
878.058	4927
878.185	4896
878.313	4968
878.441	4938
878.568	4812
878.696	4866
878.824	5045
878.951	5025
879.079	5098
879.206	5322
879.333	5064
879.461	4995
879.588	4999
879.715	5140
879.842	5273
879.97	5006
880.097	4763
880.224	4744
880.351	4767
880.478	4809
880.605	4843
880.732	4793
880.859	5075
880.986	4904
881.112	4934
881.239	4793
881.366	4675
881.493	4668
881.619	4611
881.746	4656
881.872	4698
881.999	4664
882.125	4679
882.252	4759
882.378	4778
882.505	4946
882.631	4763
882.757	4649
882.883	4748
883.01	4748
883.136	4649
883.262	4634
883.388	4546
883.514	4839
883.64	4854
883.766	4801
883.892	4637
884.018	4721
884.143	4896
884.269	4972
884.395	4702
884.52	4675
884.646	4653
884.772	4611
884.897	4577
885.023	4649
885.148	4740
885.274	4839
885.399	4778
885.524	4721
885.65	4725
885.775	4755
885.9	4675
886.025	4877
886.15	4805
886.275	4691
886.4	4656
886.525	4733
886.65	4656
886.775	4733
886.9	4896
887.025	5045
887.149	4812
887.274	4645
887.399	4603
887.523	4596
887.648	4596
887.773	4554
887.897	4774
888.021	4786
888.146	4683
888.27	4793
888.395	4900
888.519	4778
888.643	4816
888.767	4805
888.891	4679
889.015	4573
889.139	4645
889.263	4626
889.387	4763
889.511	4885
889.635	4790
889.759	4634
889.883	4691
890.006	4748
890.13	4889
890.254	4637
890.377	4687
890.501	4516
890.624	4550
890.748	4679
890.871	4478
890.995	4436
891.118	4405
891.241	4481
891.364	4512
891.488	4622
891.611	4500
891.734	4546
891.857	4615
891.98	4565
892.103	4679
892.226	4546
892.349	4535
892.471	4462
892.594	4519
892.717	4580
892.839	4546
892.962	4611
893.085	4637
893.207	4577
893.33	4417
893.452	4523
893.575	4664
893.697	4584
893.819	4759
893.941	4831
894.064	4752
894.186	4569
894.308	4523
894.43	4698
894.552	4820
894.674	4763
894.796	4538
894.918	4599
895.04	4596
895.161	4710
895.283	4653
895.405	4626
895.526	4630
895.648	4653
895.769	4748
895.891	4717
896.012	4729
896.134	4729
896.255	4637
896.376	4645
896.498	4607
896.619	4668
896.74	4626
896.861	4611
896.982	4942
897.103	5056
897.224	4816
897.345	4801
897.466	4668
897.587	4694
897.708	4854
897.828	4774
897.949	4710
898.07	4546
898.19	4615
898.311	4812
898.431	4672
898.552	4698
898.672	4839
898.792	4801
898.913	4755
899.033	4618
899.153	4508
899.273	4402
899.393	4481
899.513	4569
899.633	4493
899.753	4569
899.873	4470
899.993	4565
900.113	4546
900.232	4592
900.352	4573
900.472	4474
900.591	4386
900.711	4478
900.83	4379
900.95	4592
901.069	4660
901.189	4481
901.308	4436
901.427	4318
901.546	4413
901.665	4519
901.784	4512
901.904	4386
902.023	4284
902.141	4185
902.26	4135
902.379	4280
902.498	4204
902.617	4211
902.735	4405
902.854	4428
902.973	4360
903.091	4223
903.21	4238
903.328	4295
903.446	4276
903.565	4249
903.683	4325
903.801	4310
903.919	4341
904.038	4421
904.156	4325
904.274	4417
904.392	4390
904.51	4447
904.627	4489
904.745	4538
904.863	4596
904.981	4352
905.098	4325
905.216	4367
905.334	4443
905.451	4440
905.569	4474
905.686	4531
905.803	4554
905.921	4432
906.038	4596
906.155	4432
906.272	4375
906.389	4409
906.506	4386
906.623	4371
906.74	4371
906.857	4257
906.974	4371
907.091	4550
907.208	4683
907.324	4618
907.441	4519
907.557	4344
907.674	4310
907.79	4325
907.907	4402
908.023	4466
908.139	4516
908.256	4451
908.372	4455
908.488	4436
908.604	4348
908.72	4325
908.836	4398
908.952	4363
909.068	4390
909.184	4538
909.3	4474
909.415	4592
909.531	4573
909.647	4325
909.762	4367
909.878	4310
909.993	4428
910.108	4405
910.224	4417
910.339	4512
910.454	4375
910.57	4356
910.685	4318
910.8	4645
910.915	4607
911.03	4519
911.145	4257
911.259	4295
911.374	4360
911.489	4246
911.604	4306
911.718	4131
911.833	4162
911.947	4101
912.062	4071
912.176	4223
912.291	4268
912.405	4246
912.519	4455
912.633	4470
912.748	4360
912.862	4325
912.976	4185
913.09	4082
913.204	4219
913.318	4318
913.431	4367
913.545	4352
913.659	4478
913.772	4348
913.886	4238
914	4242
914.113	4409
914.226	4417
914.34	4417
914.453	4246
914.566	4436
914.68	4306
914.793	4314
914.906	4150
915.019	4162
915.132	4051
915.245	4177
915.358	4246
915.47	4223
915.583	4204
915.696	4272
915.809	4390
915.921	4432
916.034	4242
916.146	4227
916.259	4211
916.371	4367
916.483	4337
916.595	4325
916.708	4333
916.82	4337
916.932	4265
917.044	4318
917.156	4375
917.268	4223
917.38	4265
917.491	4284
917.603	4318
917.715	4428
917.826	4462
917.938	4402
918.049	4261
918.161	4447
918.272	4523
918.384	4531
918.495	4402
918.606	4295
918.717	4253
918.828	4363
918.939	4386
919.05	4272
919.161	4299
919.272	4177
919.383	4219
919.494	4462
919.604	4599
919.715	4390
919.826	4348
919.936	4398
920.047	4493
920.157	4497
920.267	4733
920.378	4538
920.488	4523
920.598	4691
920.708	4904
920.818	4774
920.928	4790
921.038	4946
921.148	4896
921.258	4687
921.368	4577
921.477	4489
921.587	4466
921.697	4398
921.806	4500
921.916	4436
922.025	4223
922.134	4238
922.244	4211
922.353	4341
922.462	4173
922.571	4166
922.68	3998
922.789	3994
922.898	4040
923.007	4017
923.116	4093
923.224	4074
923.333	4040
923.442	3998
923.55	3956
923.659	4032
923.767	4048
923.876	4048
923.984	4135
924.092	3987
924.201	4078
924.309	4101
924.417	4128
924.525	4078
924.633	4101
924.741	5067
924.849	3892
924.956	4128
925.064	3983
925.172	3945
925.279	4002
925.387	4082
925.494	4029
925.602	4242
925.709	4143
925.816	4010
925.924	4105
926.031	4230
926.138	4219
926.245	4207
926.352	4101
926.459	4230
926.566	4284
926.673	4135
926.779	4055
926.886	4055
926.993	4013
927.099	3964
927.206	3960
927.312	3937
927.419	4029
927.525	3975
927.631	4082
927.737	3945
927.843	3934
927.95	3819
928.056	3987
928.162	3972
928.267	4078
928.373	4527
928.479	4112
928.585	3827
928.69	3987
928.796	4029
928.901	3964
929.007	3827
929.112	3987
929.218	3949
929.323	3915
929.428	3941
929.533	4105
929.638	3880
929.743	3903
929.848	4021
929.953	3956
930.058	3922
930.163	3770
930.267	3850
930.372	3987
930.477	3793
930.581	4078
930.685	3926
930.79	3819
930.894	3869
930.998	3857
931.103	4006
931.207	3705
931.311	3709
931.415	3637
931.519	3534
931.623	3530
