Data from test_V78500241_408.txt Node
Date: Fri Mar 25 16:51:50 CST 2022
User: usil
Spectrometer: V785-0024
Trigger mode: 0
Integration Time (sec): 4.000000E-1
Scans to average: 1
Nonlinearity correction enabled: false
Boxcar width: 0
Storing dark spectrum: false
XAxis mode: Wavelengths
Number of Pixels in Spectrum: 1024
>>>>>Begin Spectral Data<<<<<
801.071	8058
801.214	7982
801.356	7864
801.499	7856
801.641	7845
801.783	7868
801.926	8039
802.068	7970
802.211	7989
802.353	7989
802.496	7856
802.638	7875
802.78	7879
802.923	7974
803.065	7875
803.208	7852
803.35	7909
803.492	8058
803.635	8096
803.777	7932
803.919	8100
804.061	8438
804.204	8130
804.346	8001
804.488	7997
804.63	8039
804.773	7936
804.915	8130
805.057	8317
805.199	8176
805.341	8267
805.483	8256
805.626	8073
805.768	8081
805.91	8073
806.052	8164
806.194	8084
806.336	8317
806.478	8107
806.62	8046
806.762	8145
806.904	8229
807.046	8415
807.188	8313
807.33	8267
807.472	8282
807.614	8138
807.756	8145
807.898	8012
808.04	7947
808.182	7959
808.324	7902
808.465	7890
808.607	8081
808.749	8126
808.891	8225
809.033	8317
809.174	8161
809.316	8035
809.458	8020
809.6	8020
809.741	7970
809.883	8065
810.025	8103
810.166	8134
810.308	8020
810.45	8001
810.591	7860
810.733	7715
810.875	7662
811.016	7521
811.158	7518
811.299	7636
811.441	7761
811.582	7765
811.724	7605
811.865	7594
812.007	7639
812.148	7681
812.29	7643
812.431	7788
812.573	7902
812.714	7974
812.855	8149
812.997	8195
813.138	8286
813.279	8248
813.421	8123
813.562	7989
813.703	7868
813.845	7723
813.986	7476
814.127	7346
814.268	7255
814.41	7297
814.551	7183
814.692	7263
814.833	7076
814.974	7110
815.115	7110
815.256	6939
815.397	6901
815.539	6924
815.68	6856
815.821	6787
815.962	6814
816.103	6810
816.244	6821
816.385	6692
816.526	6688
816.666	6513
816.807	6342
816.948	6456
817.089	6517
817.23	6460
817.371	6418
817.512	6361
817.653	6429
817.793	6422
817.934	6380
818.075	6513
818.216	6452
818.356	6334
818.497	6247
818.638	6125
818.778	6182
818.919	6110
819.06	6136
819.2	6319
819.341	6304
819.481	6418
819.622	6589
819.762	6779
819.903	6711
820.043	6597
820.184	6559
820.324	6570
820.465	6650
820.605	6623
820.746	6570
820.886	6551
821.026	6681
821.167	6738
821.307	6821
821.447	6722
821.588	6688
821.728	6608
821.868	6517
822.008	6361
822.149	6346
822.289	6342
822.429	6171
822.569	6068
822.709	6159
822.849	5901
822.99	5965
823.13	5942
823.27	5942
823.41	5817
823.55	5817
823.69	5760
823.83	5779
823.97	5718
824.11	5509
824.25	5512
824.389	5600
824.529	5577
824.669	5501
824.809	5653
824.949	5661
825.089	5627
825.228	5570
825.368	5414
825.508	5376
825.648	5345
825.787	5334
825.927	5349
826.067	5330
826.206	5246
826.346	5360
826.485	5414
826.625	5376
826.765	5547
826.904	5459
827.044	5292
827.183	5288
827.323	5113
827.462	5235
827.601	5216
827.741	5170
827.88	5231
828.02	5132
828.159	5307
828.298	5360
828.437	5357
828.577	5299
828.716	5471
828.855	5337
828.994	5174
829.134	5162
829.273	5197
829.412	5121
829.551	5159
829.69	5197
829.829	5265
829.968	5376
830.107	5280
830.246	5292
830.385	5174
830.524	5147
830.663	5124
830.802	4934
830.941	4904
831.08	4896
831.219	4995
831.357	4968
831.496	5105
831.635	4980
831.774	4854
831.913	4847
832.051	4778
832.19	4694
832.329	4862
832.467	4721
832.606	4641
832.744	4702
832.883	4725
833.022	4706
833.16	4809
833.299	4835
833.437	4805
833.576	4820
833.714	4911
833.852	4835
833.991	4862
834.129	4984
834.267	4980
834.406	4873
834.544	4987
834.682	4995
834.821	4995
834.959	5159
835.097	5033
835.235	5166
835.373	5098
835.511	5056
835.65	5064
835.788	5018
835.926	4896
836.064	4934
836.202	4877
836.34	5121
836.478	5246
836.615	5105
836.753	5201
836.891	5288
837.029	5223
837.167	5166
837.305	5174
837.443	5151
837.58	5041
837.718	5227
837.856	5212
837.993	5113
838.131	5246
838.269	5181
838.406	5227
838.544	5197
838.681	5037
838.819	5022
838.956	4892
839.094	4911
839.231	4995
839.369	5056
839.506	5398
839.643	5170
839.781	5067
839.918	5041
840.055	5117
840.193	5128
840.33	5121
840.467	5086
840.604	5178
840.742	5467
840.879	5071
841.016	5029
841.153	5143
841.29	5360
841.427	5280
841.564	5349
841.701	5337
841.838	5208
841.975	5220
842.112	5261
842.249	5193
842.385	5128
842.522	5326
842.659	5143
842.796	5128
842.933	5197
843.069	5185
843.206	5193
843.343	5315
843.479	5189
843.616	5265
843.752	5067
843.889	5022
844.025	5201
844.162	5067
844.298	5212
844.435	5052
844.571	5003
844.708	5189
844.844	5284
844.98	5303
845.117	5315
845.253	5090
845.389	5079
845.525	5132
845.661	5132
845.798	5052
845.934	5113
846.07	5071
846.206	5140
846.342	5280
846.478	5143
846.614	5041
846.75	4976
846.886	4942
847.022	5136
847.158	5003
847.294	5067
847.429	5098
847.565	5033
847.701	5303
847.837	4843
847.972	4854
848.108	4904
848.244	4942
848.379	4717
848.515	4733
848.65	4733
848.786	4748
848.921	4797
849.057	4866
849.192	4892
849.328	4809
849.463	4812
849.598	4790
849.734	4763
849.869	4679
850.004	4588
850.14	4653
850.275	4596
850.41	4516
850.545	4508
850.68	4634
850.815	4626
850.95	4588
851.085	4828
851.22	4748
851.355	4721
851.49	4645
851.625	4622
851.76	4607
851.895	4599
852.03	4561
852.165	4656
852.299	4774
852.434	4816
852.569	4740
852.703	4809
852.838	4850
852.973	4942
853.107	4911
853.242	4740
853.376	4641
853.511	4554
853.645	4683
853.78	4767
853.914	4717
854.048	4645
854.183	4664
854.317	4691
854.451	4927
854.585	4672
854.72	4702
854.854	4809
854.988	4596
855.122	4599
855.256	4588
855.39	4694
855.524	4801
855.658	4706
855.792	4683
855.926	4782
856.06	4809
856.194	4828
856.327	4771
856.461	4618
856.595	4656
856.729	4691
856.862	4797
856.996	4805
857.13	4790
857.263	4801
857.397	4816
857.53	4744
857.664	4759
857.797	4774
857.931	4862
858.064	4721
858.197	4805
858.331	4717
858.464	4668
858.597	4558
858.731	4645
858.864	4710
858.997	4698
859.13	4664
859.263	4771
859.396	4736
859.529	4649
859.662	4618
859.795	4584
859.928	4706
860.061	4850
860.194	4820
860.327	4641
860.46	4656
860.592	4755
860.725	4767
860.858	4831
860.99	4603
861.123	4573
861.256	4550
861.388	4645
861.521	5440
861.653	4508
861.786	4493
861.918	4504
862.05	4596
862.183	4626
862.315	4691
862.447	4729
862.58	4611
862.712	4428
862.844	4371
862.976	4489
863.108	4512
863.24	4828
863.372	4421
863.504	4443
863.636	4447
863.768	4558
863.9	4485
864.032	4363
864.164	4455
864.296	4516
864.428	4588
864.559	4611
864.691	4607
864.823	4542
864.954	4546
865.086	4538
865.217	4470
865.349	4432
865.48	4500
865.612	4508
865.743	4668
865.875	4550
866.006	4459
866.137	4504
866.269	4512
866.4	4474
866.531	4466
866.662	4447
866.793	4504
866.924	4462
867.055	4592
867.186	4558
867.317	4413
867.448	4394
867.579	4440
867.71	4405
867.841	4383
867.972	4592
868.103	4485
868.233	4455
868.364	4478
868.495	4550
868.625	4675
868.756	4790
868.886	4569
869.017	4698
869.147	4835
869.278	4850
869.408	4679
869.539	4691
869.669	4801
869.799	4721
869.929	4812
870.06	4809
870.19	4991
870.32	4957
870.45	4953
870.58	5090
870.71	5151
870.84	5170
870.97	4991
871.1	4930
871.23	5159
871.36	5181
871.489	5029
871.619	5124
871.749	5162
871.879	5128
872.008	5242
872.138	5094
872.267	5045
872.397	4881
872.526	4854
872.656	4702
872.785	4835
872.915	4953
873.044	5045
873.173	4957
873.303	5025
873.432	4968
873.561	4930
873.69	4934
873.819	4911
873.948	4984
874.077	4850
874.206	4797
874.335	4828
874.464	4980
874.593	5136
874.722	5018
874.851	5155
874.979	5086
875.108	5045
875.237	4896
875.365	4911
875.494	4934
875.623	4980
875.751	4908
875.88	4946
876.008	5014
876.136	5025
876.265	5258
876.393	5364
876.521	5315
876.65	5330
876.778	5189
876.906	5121
877.034	5029
877.162	5143
877.29	5041
877.418	5124
877.546	5083
877.674	5060
877.802	5006
877.93	5060
878.058	4968
878.185	4927
878.313	4961
878.441	4991
878.568	4854
878.696	4892
878.824	5014
878.951	5018
879.079	5193
879.206	5318
879.333	5155
879.461	4984
879.588	5067
879.715	5204
879.842	5246
879.97	5075
880.097	4843
880.224	4736
880.351	4801
880.478	4847
880.605	4839
880.732	4797
880.859	5162
880.986	4934
881.112	4949
881.239	4790
881.366	4660
881.493	4649
881.619	4645
881.746	4656
881.872	4683
881.999	4691
882.125	4717
882.252	4809
882.378	4885
882.505	5018
882.631	4828
882.757	4714
882.883	4809
883.01	4755
883.136	4752
883.262	4634
883.388	4683
883.514	4900
883.64	4889
883.766	4820
883.892	4691
884.018	4698
884.143	4904
884.269	5064
884.395	4656
884.52	4691
884.646	4672
884.772	4607
884.897	4618
885.023	4710
885.148	4862
885.274	4885
885.399	4881
885.524	4733
885.65	4733
885.775	4797
885.9	4782
886.025	4881
886.15	4812
886.275	4790
886.4	4710
886.525	4778
886.65	4729
886.775	4748
886.9	4927
887.025	5033
887.149	4870
887.274	4694
887.399	4626
887.523	4618
887.648	4615
887.773	4596
887.897	4763
888.021	4820
888.146	4729
888.27	4866
888.395	4923
888.519	4793
888.643	4911
888.767	4854
888.891	4736
889.015	4675
889.139	4706
889.263	4664
889.387	4774
889.511	4889
889.635	4782
889.759	4710
889.883	4649
890.006	4694
890.13	4885
890.254	4607
890.377	4698
890.501	4519
890.624	4573
890.748	4714
890.871	4512
890.995	4474
891.118	4428
891.241	4573
891.364	4546
891.488	4653
891.611	4538
891.734	4588
891.857	4618
891.98	4546
892.103	4683
892.226	4603
892.349	4558
892.471	4466
892.594	4611
892.717	4679
892.839	4630
892.962	4637
893.085	4694
893.207	4569
893.33	4462
893.452	4573
893.575	4702
893.697	4626
893.819	4816
893.941	4870
894.064	4889
894.186	4607
894.308	4611
894.43	4786
894.552	4820
894.674	4774
894.796	4634
894.918	4626
895.04	4558
895.161	4752
895.283	4687
895.405	4596
895.526	4702
895.648	4714
895.769	4687
895.891	4763
896.012	4790
896.134	4736
896.255	4729
896.376	4668
896.498	4653
896.619	4740
896.74	4603
896.861	4649
896.982	4972
897.103	5079
897.224	4904
897.345	4839
897.466	4702
897.587	4782
897.708	4889
897.828	4812
897.949	4725
898.07	4626
898.19	4675
898.311	4870
898.431	4664
898.552	4786
898.672	4805
898.792	4774
898.913	4759
899.033	4607
899.153	4607
899.273	4481
899.393	4527
899.513	4603
899.633	4554
899.753	4577
899.873	4538
899.993	4615
900.113	4596
900.232	4561
900.352	4596
900.472	4497
900.591	4375
900.711	4531
900.83	4470
900.95	4656
901.069	4759
901.189	4603
901.308	4409
901.427	4348
901.546	4421
901.665	4535
901.784	4550
901.904	4428
902.023	4310
902.141	4173
902.26	4207
902.379	4356
902.498	4265
902.617	4272
902.735	4386
902.854	4489
902.973	4386
903.091	4196
903.21	4246
903.328	4318
903.446	4310
903.565	4295
903.683	4367
903.801	4337
903.919	4428
904.038	4428
904.156	4371
904.274	4466
904.392	4436
904.51	4432
904.627	4462
904.745	4592
904.863	4664
904.981	4409
905.098	4306
905.216	4428
905.334	4481
905.451	4459
905.569	4405
905.686	4565
905.803	4611
905.921	4500
906.038	4546
906.155	4489
906.272	4417
906.389	4451
906.506	4386
906.623	4424
906.74	4428
906.857	4322
906.974	4390
907.091	4603
907.208	4714
907.324	4653
907.441	4489
907.557	4394
907.674	4371
907.79	4352
907.907	4337
908.023	4504
908.139	4500
908.256	4459
908.372	4512
908.488	4485
908.604	4341
908.72	4322
908.836	4417
908.952	4421
909.068	4424
909.184	4607
909.3	4500
909.415	4603
909.531	4561
909.647	4322
909.762	4383
909.878	4363
909.993	4462
910.108	4481
910.224	4462
910.339	4542
910.454	4466
910.57	4360
910.685	4322
910.8	4653
910.915	4664
911.03	4538
911.145	4375
911.259	4375
911.374	4409
911.489	4295
911.604	4295
911.718	4227
911.833	4227
911.947	4128
912.062	4055
912.176	4207
912.291	4223
912.405	4303
912.519	4478
912.633	4512
912.748	4402
912.862	4341
912.976	4265
913.09	4131
913.204	4158
913.318	4306
913.431	4409
913.545	4383
913.659	4443
913.772	4398
913.886	4265
914	4291
914.113	4348
914.226	4432
914.34	4386
914.453	4280
914.566	4421
914.68	4344
914.793	4287
914.906	4173
915.019	4135
915.132	4120
915.245	4166
915.358	4227
915.47	4257
915.583	4284
915.696	4314
915.809	4428
915.921	4409
916.034	4268
916.146	4242
916.259	4242
916.371	4394
916.483	4325
916.595	4253
916.708	4284
916.82	4360
916.932	4299
917.044	4356
917.156	4348
917.268	4234
917.38	4299
917.491	4318
917.603	4337
917.715	4421
917.826	4421
917.938	4337
918.049	4230
918.161	4405
918.272	4527
918.384	4535
918.495	4481
918.606	4299
918.717	4261
918.828	4352
918.939	4402
919.05	4272
919.161	4341
919.272	4120
919.383	4223
919.494	4478
919.604	4664
919.715	4451
919.826	4379
919.936	4405
920.047	4592
920.157	4512
920.267	4691
920.378	4538
920.488	4550
920.598	4706
920.708	4896
920.818	4812
920.928	4774
921.038	4942
921.148	4995
921.258	4649
921.368	4615
921.477	4500
921.587	4481
921.697	4424
921.806	4550
921.916	4485
922.025	4325
922.134	4299
922.244	4223
922.353	4329
922.462	4162
922.571	4147
922.68	4048
922.789	3991
922.898	4071
923.007	4025
923.116	4128
923.224	4071
923.333	4074
923.442	4002
923.55	3994
923.659	4131
923.767	4200
923.876	3979
923.984	4150
924.092	4021
924.201	4124
924.309	4116
924.417	4166
924.525	4101
924.633	4188
924.741	5018
924.849	3964
924.956	4143
925.064	4017
925.172	3960
925.279	3998
925.387	4109
925.494	4112
925.602	4253
925.709	4257
925.816	4097
925.924	4200
926.031	4265
926.138	4234
926.245	4242
926.352	4154
926.459	4322
926.566	4329
926.673	4181
926.779	4173
926.886	4147
926.993	4032
927.099	3968
927.206	3998
927.312	3964
927.419	4093
927.525	4074
927.631	4166
927.737	4021
927.843	3998
927.95	3892
928.056	4025
928.162	4048
928.267	4086
928.373	4763
928.479	4166
928.585	3918
928.69	4063
928.796	4150
928.901	4002
929.007	3922
929.112	4063
929.218	4025
929.323	3983
929.428	3979
929.533	4158
929.638	3987
929.743	3994
929.848	4067
929.953	4078
930.058	3994
930.163	3804
930.267	3812
930.372	4017
930.477	3884
930.581	4139
930.685	3956
930.79	3903
930.894	3922
930.998	3934
931.103	4158
931.207	3747
931.311	3755
931.415	3724
931.519	3534
931.623	3595
