Data from test_V78500241_181.txt Node
Date: Fri Mar 25 16:50:15 CST 2022
User: usil
Spectrometer: V785-0024
Trigger mode: 0
Integration Time (sec): 4.000000E-1
Scans to average: 1
Nonlinearity correction enabled: false
Boxcar width: 0
Storing dark spectrum: false
XAxis mode: Wavelengths
Number of Pixels in Spectrum: 1024
>>>>>Begin Spectral Data<<<<<
801.071	8016
801.214	8035
801.356	7849
801.499	7894
801.641	7799
801.783	7860
801.926	8031
802.068	7982
802.211	8050
802.353	7967
802.496	7868
802.638	7913
802.78	7902
802.923	7898
803.065	7856
803.208	7860
803.35	8012
803.492	8134
803.635	8168
803.777	7978
803.919	8092
804.061	8339
804.204	8119
804.346	8024
804.488	7894
804.63	8058
804.773	7978
804.915	8054
805.057	8225
805.199	8107
805.341	8191
805.483	8275
805.626	8240
805.768	8107
805.91	8103
806.052	8138
806.194	8107
806.336	8206
806.478	8107
806.62	8088
806.762	8088
806.904	8202
807.046	8408
807.188	8362
807.33	8324
807.472	8279
807.614	8187
807.756	8062
807.898	7944
808.04	7890
808.182	7898
808.324	7951
808.465	7864
808.607	8058
808.749	8119
808.891	8134
809.033	8290
809.174	8172
809.316	8031
809.458	8035
809.6	7989
809.741	7959
809.883	8050
810.025	8088
810.166	8100
810.308	7986
810.45	7978
810.591	7833
810.733	7776
810.875	7715
811.016	7590
811.158	7460
811.299	7636
811.441	7769
811.582	7700
811.724	7571
811.865	7586
812.007	7662
812.148	7655
812.29	7658
812.431	7780
812.573	8001
812.714	8073
812.855	8168
812.997	8244
813.138	8286
813.279	8210
813.421	8119
813.562	8050
813.703	7909
813.845	7700
813.986	7411
814.127	7297
814.268	7255
814.41	7282
814.551	7107
814.692	7190
814.833	7187
814.974	7164
815.115	7190
815.256	7008
815.397	6985
815.539	6920
815.68	6890
815.821	6814
815.962	6871
816.103	6779
816.244	6741
816.385	6673
816.526	6623
816.666	6555
816.807	6342
816.948	6429
817.089	6418
817.23	6399
817.371	6414
817.512	6376
817.653	6399
817.793	6346
817.934	6483
818.075	6429
818.216	6448
818.356	6399
818.497	6201
818.638	6072
818.778	6140
818.919	6114
819.06	6175
819.2	6319
819.341	6319
819.481	6391
819.622	6525
819.762	6738
819.903	6726
820.043	6585
820.184	6525
820.324	6585
820.465	6760
820.605	6684
820.746	6604
820.886	6490
821.026	6620
821.167	6730
821.307	6833
821.447	6768
821.588	6658
821.728	6620
821.868	6486
822.008	6369
822.149	6372
822.289	6380
822.429	6136
822.569	6072
822.709	6087
822.849	5920
822.99	5889
823.13	5927
823.27	5950
823.41	5832
823.55	5802
823.69	5771
823.83	5805
823.97	5718
824.11	5554
824.25	5539
824.389	5589
824.529	5547
824.669	5551
824.809	5649
824.949	5684
825.089	5642
825.228	5570
825.368	5459
825.508	5376
825.648	5360
825.787	5376
825.927	5429
826.067	5349
826.206	5307
826.346	5383
826.485	5433
826.625	5425
826.765	5558
826.904	5509
827.044	5284
827.183	5227
827.323	5159
827.462	5288
827.601	5216
827.741	5231
827.88	5227
828.02	5132
828.159	5261
828.298	5303
828.437	5391
828.577	5265
828.716	5532
828.855	5265
828.994	5143
829.134	5197
829.273	5193
829.412	5155
829.551	5132
829.69	5197
829.829	5212
829.968	5406
830.107	5311
830.246	5242
830.385	5174
830.524	5124
830.663	5056
830.802	4961
830.941	4866
831.08	4873
831.219	4987
831.357	4953
831.496	5197
831.635	4953
831.774	4831
831.913	4824
832.051	4721
832.19	4774
832.329	4839
832.467	4725
832.606	4611
832.744	4736
832.883	4752
833.022	4736
833.16	4744
833.299	4862
833.437	4866
833.576	4866
833.714	4892
833.852	4877
833.991	4942
834.129	5022
834.267	4961
834.406	4927
834.544	4995
834.682	4961
834.821	4953
834.959	5143
835.097	4987
835.235	5143
835.373	5075
835.511	5132
835.65	5064
835.788	5045
835.926	4900
836.064	4885
836.202	4873
836.34	5147
836.478	5212
836.615	5162
836.753	5231
836.891	5273
837.029	5273
837.167	5147
837.305	5121
837.443	5204
837.58	5117
837.718	5239
837.856	5193
837.993	5124
838.131	5269
838.269	5223
838.406	5155
838.544	5174
838.681	5083
838.819	5037
838.956	4915
839.094	4854
839.231	4976
839.369	5102
839.506	5459
839.643	5284
839.781	5056
839.918	5045
840.055	5056
840.193	5102
840.33	5143
840.467	5159
840.604	5208
840.742	5436
840.879	5086
841.016	5086
841.153	5155
841.29	5383
841.427	5353
841.564	5345
841.701	5364
841.838	5265
841.975	5261
842.112	5303
842.249	5147
842.385	5124
842.522	5303
842.659	5162
842.796	5181
842.933	5216
843.069	5162
843.206	5197
843.343	5315
843.479	5242
843.616	5235
843.752	5037
843.889	5025
844.025	5212
844.162	5014
844.298	5185
844.435	5105
844.571	5071
844.708	5239
844.844	5315
844.98	5326
845.117	5277
845.253	5193
845.389	5060
845.525	5166
845.661	5155
845.798	5067
845.934	5090
846.07	5083
846.206	5246
846.342	5349
846.478	5189
846.614	5083
846.75	5010
846.886	4911
847.022	5143
847.158	5022
847.294	5075
847.429	5124
847.565	5041
847.701	5269
847.837	4858
847.972	4835
848.108	4976
848.244	4892
848.379	4763
848.515	4752
848.65	4736
848.786	4809
848.921	4782
849.057	4858
849.192	4904
849.328	4862
849.463	4885
849.598	4831
849.734	4801
849.869	4672
850.004	4615
850.14	4649
850.275	4626
850.41	4497
850.545	4588
850.68	4615
850.815	4656
850.95	4649
851.085	4839
851.22	4771
851.355	4736
851.49	4649
851.625	4611
851.76	4660
851.895	4542
852.03	4527
852.165	4634
852.299	4733
852.434	4812
852.569	4790
852.703	4786
852.838	4900
852.973	4934
853.107	4881
853.242	4744
853.376	4672
853.511	4584
853.645	4607
853.78	4824
853.914	4641
854.048	4679
854.183	4626
854.317	4694
854.451	4812
854.585	4694
854.72	4618
854.854	4725
854.988	4622
855.122	4630
855.256	4527
855.39	4672
855.524	4778
855.658	4725
855.792	4679
855.926	4763
856.06	4767
856.194	4820
856.327	4714
856.461	4641
856.595	4630
856.729	4626
856.862	4767
856.996	4683
857.13	4729
857.263	4797
857.397	4805
857.53	4641
857.664	4733
857.797	4767
857.931	4858
858.064	4736
858.197	4782
858.331	4622
858.464	4649
858.597	4527
858.731	4618
858.864	4645
858.997	4607
859.13	4653
859.263	4675
859.396	4733
859.529	4618
859.662	4577
859.795	4596
859.928	4611
860.061	4774
860.194	4812
860.327	4634
860.46	4603
860.592	4694
860.725	4714
860.858	4721
860.99	4565
861.123	4596
861.256	4531
861.388	4618
861.521	5360
861.653	4440
861.786	4413
861.918	4481
862.05	4531
862.183	4554
862.315	4645
862.447	4668
862.58	4569
862.712	4409
862.844	4363
862.976	4508
863.108	4455
863.24	4889
863.372	4322
863.504	4421
863.636	4432
863.768	4409
863.9	4466
864.032	4390
864.164	4440
864.296	4504
864.428	4535
864.559	4546
864.691	4535
864.823	4531
864.954	4516
865.086	4527
865.217	4485
865.349	4424
865.48	4455
865.612	4489
865.743	4615
865.875	4451
866.006	4409
866.137	4470
866.269	4424
866.4	4451
866.531	4459
866.662	4405
866.793	4417
866.924	4455
867.055	4535
867.186	4451
867.317	4417
867.448	4379
867.579	4348
867.71	4402
867.841	4360
867.972	4466
868.103	4455
868.233	4504
868.364	4440
868.495	4512
868.625	4664
868.756	4763
868.886	4618
869.017	4634
869.147	4793
869.278	4793
869.408	4660
869.539	4634
869.669	4675
869.799	4664
869.929	4793
870.06	4733
870.19	4976
870.32	4896
870.45	4968
870.58	4984
870.71	5109
870.84	5094
870.97	4965
871.1	4911
871.23	5178
871.36	5185
871.489	5025
871.619	5079
871.749	5071
871.879	5151
872.008	5178
872.138	5056
872.267	5029
872.397	4877
872.526	4786
872.656	4725
872.785	4858
872.915	4976
873.044	5003
873.173	4911
873.303	4987
873.432	4984
873.561	4968
873.69	4862
873.819	4870
873.948	4938
874.077	4812
874.206	4805
874.335	4790
874.464	4949
874.593	5037
874.722	5025
874.851	5067
874.979	5045
875.108	5033
875.237	4904
875.365	4915
875.494	4915
875.623	4987
875.751	4809
875.88	4889
876.008	4961
876.136	4965
876.265	5174
876.393	5360
876.521	5231
876.65	5212
876.778	5155
876.906	5143
877.034	5037
877.162	5067
877.29	4984
877.418	5045
877.546	5067
877.674	5056
877.802	5010
877.93	5052
878.058	4934
878.185	4900
878.313	4946
878.441	4957
878.568	4778
878.696	4873
878.824	4949
878.951	4972
879.079	5181
879.206	5311
879.333	5086
879.461	5003
879.588	4949
879.715	5113
879.842	5231
879.97	5003
880.097	4786
880.224	4714
880.351	4782
880.478	4873
880.605	4782
880.732	4755
880.859	5086
880.986	4900
881.112	4896
881.239	4801
881.366	4656
881.493	4607
881.619	4569
881.746	4630
881.872	4664
881.999	4588
882.125	4710
882.252	4801
882.378	4820
882.505	4968
882.631	4786
882.757	4714
882.883	4721
883.01	4778
883.136	4687
883.262	4637
883.388	4607
883.514	4839
883.64	4843
883.766	4809
883.892	4649
884.018	4740
884.143	4919
884.269	5006
884.395	4649
884.52	4615
884.646	4668
884.772	4588
884.897	4577
885.023	4656
885.148	4805
885.274	4889
885.399	4801
885.524	4744
885.65	4714
885.775	4683
885.9	4729
886.025	4877
886.15	4790
886.275	4706
886.4	4683
886.525	4710
886.65	4721
886.775	4714
886.9	4885
887.025	5056
887.149	4812
887.274	4660
887.399	4630
887.523	4618
887.648	4577
887.773	4565
887.897	4736
888.021	4801
888.146	4717
888.27	4805
888.395	4961
888.519	4824
888.643	4805
888.767	4881
888.891	4641
889.015	4611
889.139	4649
889.263	4607
889.387	4752
889.511	4885
889.635	4820
889.759	4611
889.883	4664
890.006	4725
890.13	4820
890.254	4618
890.377	4691
890.501	4561
890.624	4523
890.748	4664
890.871	4504
890.995	4421
891.118	4432
891.241	4523
891.364	4550
891.488	4637
891.611	4542
891.734	4531
891.857	4626
891.98	4546
892.103	4672
892.226	4580
892.349	4523
892.471	4447
892.594	4580
892.717	4573
892.839	4573
892.962	4584
893.085	4679
893.207	4580
893.33	4436
893.452	4485
893.575	4626
893.697	4634
893.819	4801
893.941	4801
894.064	4790
894.186	4561
894.308	4550
894.43	4725
894.552	4843
894.674	4721
894.796	4554
894.918	4580
895.04	4611
895.161	4694
895.283	4649
895.405	4569
895.526	4603
895.648	4664
895.769	4706
895.891	4634
896.012	4725
896.134	4675
896.255	4687
896.376	4649
896.498	4599
896.619	4672
896.74	4660
896.861	4672
896.982	4915
897.103	5098
897.224	4793
897.345	4740
897.466	4649
897.587	4733
897.708	4820
897.828	4805
897.949	4721
898.07	4561
898.19	4645
898.311	4858
898.431	4656
898.552	4748
898.672	4801
898.792	4839
898.913	4786
899.033	4626
899.153	4538
899.273	4421
899.393	4538
899.513	4546
899.633	4550
899.753	4558
899.873	4546
899.993	4626
900.113	4588
900.232	4607
900.352	4611
900.472	4516
900.591	4432
900.711	4565
900.83	4470
900.95	4660
901.069	4668
901.189	4592
901.308	4363
901.427	4329
901.546	4455
901.665	4531
901.784	4577
901.904	4428
902.023	4383
902.141	4234
902.26	4223
902.379	4325
902.498	4291
902.617	4291
902.735	4436
902.854	4443
902.973	4405
903.091	4295
903.21	4284
903.328	4363
903.446	4322
903.565	4337
903.683	4417
903.801	4371
903.919	4432
904.038	4531
904.156	4348
904.274	4478
904.392	4443
904.51	4508
904.627	4516
904.745	4653
904.863	4691
904.981	4436
905.098	4405
905.216	4398
905.334	4478
905.451	4516
905.569	4447
905.686	4615
905.803	4580
905.921	4478
906.038	4596
906.155	4516
906.272	4447
906.389	4527
906.506	4405
906.623	4455
906.74	4436
906.857	4371
906.974	4466
907.091	4622
907.208	4725
907.324	4660
907.441	4554
907.557	4402
907.674	4390
907.79	4371
907.907	4409
908.023	4516
908.139	4523
908.256	4459
908.372	4512
908.488	4527
908.604	4413
908.72	4386
908.836	4409
908.952	4428
909.068	4474
909.184	4653
909.3	4497
909.415	4603
909.531	4603
909.647	4466
909.762	4451
909.878	4405
909.993	4481
910.108	4405
910.224	4478
910.339	4535
910.454	4413
910.57	4402
910.685	4352
910.8	4675
910.915	4622
911.03	4470
911.145	4402
911.259	4367
911.374	4466
911.489	4295
911.604	4333
911.718	4238
911.833	4238
911.947	4143
912.062	4063
912.176	4249
912.291	4306
912.405	4291
912.519	4527
912.633	4546
912.748	4424
912.862	4375
912.976	4230
913.09	4143
913.204	4246
913.318	4253
913.431	4383
913.545	4413
913.659	4504
913.772	4379
913.886	4333
914	4306
914.113	4424
914.226	4474
914.34	4451
914.453	4265
914.566	4485
914.68	4314
914.793	4371
914.906	4200
915.019	4192
915.132	4139
915.245	4223
915.358	4249
915.47	4276
915.583	4299
915.696	4356
915.809	4459
915.921	4493
916.034	4295
916.146	4261
916.259	4268
916.371	4417
916.483	4398
916.595	4310
916.708	4375
916.82	4386
916.932	4344
917.044	4352
917.156	4394
917.268	4276
917.38	4306
917.491	4356
917.603	4371
917.715	4466
917.826	4424
917.938	4417
918.049	4329
918.161	4443
918.272	4611
918.384	4580
918.495	4531
918.606	4322
918.717	4295
918.828	4424
918.939	4409
919.05	4310
919.161	4348
919.272	4196
919.383	4306
919.494	4531
919.604	4653
919.715	4462
919.826	4371
919.936	4497
920.047	4580
920.157	4538
920.267	4748
920.378	4550
920.488	4508
920.598	4752
920.708	4934
920.818	4820
920.928	4850
921.038	4927
921.148	4949
921.258	4698
921.368	4599
921.477	4565
921.587	4504
921.697	4394
921.806	4603
921.916	4474
922.025	4318
922.134	4348
922.244	4284
922.353	4390
922.462	4227
922.571	4192
922.68	4067
922.789	4021
922.898	4078
923.007	4040
923.116	4131
923.224	4112
923.333	4116
923.442	4078
923.55	4055
923.659	4112
923.767	4158
923.876	4040
923.984	4173
924.092	4036
924.201	4074
924.309	4128
924.417	4204
924.525	4131
924.633	4162
924.741	4919
924.849	3979
924.956	4196
925.064	4021
925.172	3968
925.279	4048
925.387	4112
925.494	4105
925.602	4265
925.709	4253
925.816	4078
925.924	4211
926.031	4291
926.138	4246
926.245	4230
926.352	4105
926.459	4310
926.566	4352
926.673	4215
926.779	4147
926.886	4116
926.993	4029
927.099	3998
927.206	3983
927.312	3972
927.419	4128
927.525	4048
927.631	4109
927.737	4055
927.843	3994
927.95	3857
928.056	4006
928.162	4025
928.267	4120
928.373	4729
928.479	4162
928.585	3922
928.69	4067
928.796	4093
928.901	4017
929.007	3922
929.112	4067
929.218	4010
929.323	4002
929.428	3983
929.533	4139
929.638	3968
929.743	4029
929.848	4044
929.953	4082
930.058	3987
930.163	3827
930.267	3873
930.372	4048
930.477	3850
930.581	4116
930.685	3987
930.79	3823
930.894	3888
930.998	3899
931.103	4059
931.207	3766
931.311	3778
931.415	3709
931.519	3557
931.623	3599
